##TITLE=No Description
##DATA TYPE=INFRARED SPECTRUM
##XUNITS=1/CM
##YUNITS=%T
399.452061  	30.833565 
400.888939  	31.471937 
402.325817  	31.034347 
403.762695  	30.825639 
405.199573  	31.554038 
406.636451  	31.854665 
408.073328  	31.678798 
409.510206  	31.370110 
410.947084  	31.271218 
412.383962  	31.595720 
413.820840  	31.719037 
415.257718  	31.714297 
416.694596  	31.694373 
418.131474  	31.037847 
419.568352  	31.130653 
421.005230  	31.792286 
422.442108  	31.717306 
423.878986  	31.788072 
425.315863  	31.855288 
426.752741  	31.662012 
428.189619  	31.664143 
429.626497  	31.775045 
431.063375  	32.000424 
432.500253  	32.051190 
433.937131  	31.913420 
435.374009  	32.098093 
436.810887  	32.214103 
438.247765  	32.414944 
439.684643  	32.819763 
441.121521  	32.830494 
442.558398  	32.968712 
443.995276  	32.833910 
445.432154  	32.134958 
446.869032  	32.516531 
448.305910  	33.160464 
449.742788  	32.687470 
451.179666  	32.440409 
452.616544  	32.483826 
454.053422  	32.371309 
455.490300  	32.729539 
456.927178  	33.431778 
458.364056  	33.817839 
459.800933  	33.406927 
461.237811  	32.852986 
462.674689  	33.037819 
464.111567  	33.308283 
465.548445  	33.012858 
466.985323  	32.845069 
468.422201  	33.072510 
469.859079  	33.529944 
471.295957  	33.885147 
472.732835  	33.734880 
474.169713  	33.560289 
475.606591  	33.516021 
477.043469  	33.441141 
478.480346  	33.595127 
479.917224  	33.751332 
481.354102  	33.739663 
482.790980  	33.825988 
484.227858  	34.035690 
485.664736  	34.030720 
487.101614  	33.829827 
488.538492  	33.981917 
489.975370  	34.318384 
491.412248  	34.202812 
492.849126  	33.993628 
494.286004  	34.106115 
495.722881  	34.248675 
497.159759  	34.290361 
498.596637  	34.175220 
500.033515  	34.104192 
501.470393  	34.164175 
502.907271  	34.054599 
504.344149  	33.997527 
505.781027  	34.151475 
507.217905  	34.260942 
508.654783  	34.251537 
510.091661  	34.146291 
511.528539  	34.154301 
512.965416  	34.276291 
514.402294  	34.139254 
515.839172  	34.036453 
517.276050  	34.199579 
518.712928  	34.278084 
520.149806  	34.301602 
521.586684  	34.172547 
523.023562  	33.891632 
524.460440  	33.892459 
525.897318  	34.062646 
527.334196  	34.143337 
528.771074  	34.181277 
530.207951  	34.128842 
531.644829  	34.180347 
533.081707  	34.303540 
534.518585  	34.231665 
535.955463  	34.223746 
537.392341  	34.324277 
538.829219  	34.304233 
540.266097  	34.291557 
541.702975  	34.301281 
543.139853  	34.262030 
544.576731  	34.222080 
546.013609  	34.270623 
547.450486  	34.445134 
548.887364  	34.425213 
550.324242  	34.181447 
551.761120  	34.172113 
553.197998  	34.332257 
554.634876  	34.394793 
556.071754  	34.403115 
557.508632  	34.329620 
558.945510  	34.277736 
560.382388  	34.387698 
561.819266  	34.494303 
563.256144  	34.521169 
564.693021  	34.524685 
566.129899  	34.495868 
567.566777  	34.491907 
569.003655  	34.615692 
570.440533  	34.810363 
571.877411  	34.868831 
573.314289  	34.798393 
574.751167  	34.835944 
576.188045  	34.942855 
577.624923  	34.971816 
579.061801  	35.005365 
580.498679  	35.004407 
581.935556  	34.933442 
583.372434  	34.970614 
584.809312  	35.017449 
586.246190  	34.932429 
587.683068  	34.950406 
589.119946  	35.086530 
590.556824  	35.158675 
591.993702  	35.285383 
593.430580  	35.428995 
594.867458  	35.433025 
596.304336  	35.483434 
597.741214  	35.572861 
599.178091  	35.554016 
600.614969  	35.566895 
602.051847  	35.593656 
603.488725  	35.562153 
604.925603  	35.568847 
606.362481  	35.572073 
607.799359  	35.544839 
609.236237  	35.548540 
610.673115  	35.527754 
612.109993  	35.535171 
613.546871  	35.547622 
614.983749  	35.503009 
616.420626  	35.522094 
617.857504  	35.580481 
619.294382  	35.609946 
620.731260  	35.719739 
622.168138  	35.833566 
623.605016  	35.855366 
625.041894  	35.855092 
626.478772  	35.896712 
627.915650  	36.024734 
629.352528  	36.137618 
630.789406  	36.161585 
632.226284  	36.247072 
633.663161  	36.361730 
635.100039  	36.444388 
636.536917  	36.555415 
637.973795  	36.629091 
639.410673  	36.695604 
640.847551  	36.834699 
642.284429  	36.953528 
643.721307  	37.035273 
645.158185  	37.115181 
646.595063  	37.171265 
648.031941  	37.216161 
649.468819  	37.265376 
650.905696  	37.349966 
652.342574  	37.462843 
653.779452  	37.509462 
655.216330  	37.541917 
656.653208  	37.604057 
658.090086  	37.605061 
659.526964  	37.619424 
660.963842  	37.649654 
662.400720  	37.678570 
663.837598  	37.747781 
665.274476  	37.786618 
666.711354  	37.771721 
668.148231  	37.840856 
669.585109  	37.917444 
671.021987  	37.895458 
672.458865  	37.922222 
673.895743  	38.002959 
675.332621  	38.070040 
676.769499  	38.105887 
678.206377  	38.074622 
679.643255  	38.057008 
681.080133  	38.148994 
682.517011  	38.244279 
683.953889  	38.258829 
685.390766  	38.258558 
686.827644  	38.301032 
688.264522  	38.347813 
689.701400  	38.306796 
691.138278  	38.303393 
692.575156  	38.385392 
694.012034  	38.396590 
695.448912  	38.386899 
696.885790  	38.451645 
698.322668  	38.482276 
699.759546  	38.502910 
701.196424  	38.566013 
702.633301  	38.574445 
704.070179  	38.564791 
705.507057  	38.600859 
706.943935  	38.644595 
708.380813  	38.713648 
709.817691  	38.767265 
711.254569  	38.783115 
712.691447  	38.828358 
714.128325  	38.875191 
715.565203  	38.890391 
717.002081  	38.938346 
718.438959  	39.023995 
719.875837  	39.100562 
721.312714  	39.183818 
722.749592  	39.251288 
724.186470  	39.298817 
725.623348  	39.353600 
727.060226  	39.412316 
728.497104  	39.466158 
729.933982  	39.501278 
731.370860  	39.578750 
732.807738  	39.697551 
734.244616  	39.743934 
735.681494  	39.809722 
737.118372  	39.865640 
738.555249  	39.937182 
739.992127  	40.026313 
741.429005  	40.094793 
742.865883  	40.130165 
744.302761  	40.183199 
745.739639  	40.251060 
747.176517  	40.279857 
748.613395  	40.295807 
750.050273  	40.336678 
751.487151  	40.380375 
752.924029  	40.406948 
754.360907  	40.434235 
755.797784  	40.475435 
757.234662  	40.490075 
758.671540  	40.469016 
760.108418  	40.480005 
761.545296  	40.547763 
762.982174  	40.626672 
764.419052  	40.666466 
765.855930  	40.690164 
767.292808  	40.775156 
768.729686  	40.876028 
770.166564  	40.926328 
771.603442  	41.003600 
773.040319  	41.094923 
774.477197  	41.112107 
775.914075  	41.139142 
777.350953  	41.248305 
778.787831  	41.365015 
780.224709  	41.424557 
781.661587  	41.449733 
783.098465  	41.505171 
784.535343  	41.584612 
785.972221  	41.648220 
787.409099  	41.689297 
788.845977  	41.675482 
790.282854  	41.646159 
791.719732  	41.662546 
793.156610  	41.688946 
794.593488  	41.746672 
796.030366  	41.804818 
797.467244  	41.784575 
798.904122  	41.813453 
800.341000  	41.904445 
801.777878  	41.916261 
803.214756  	41.940279 
804.651634  	42.022852 
806.088512  	42.065510 
807.525389  	42.097365 
808.962267  	42.125996 
810.399145  	42.138689 
811.836023  	42.191440 
813.272901  	42.282115 
814.709779  	42.413047 
816.146657  	42.590742 
817.583535  	42.779335 
819.020413  	42.953742 
820.457291  	43.064566 
821.894169  	43.136531 
823.331047  	43.227393 
824.767924  	43.283688 
826.204802  	43.311545 
827.641680  	43.353016 
829.078558  	43.375624 
830.515436  	43.381436 
831.952314  	43.375085 
833.389192  	43.368717 
834.826070  	43.378841 
836.262948  	43.374427 
837.699826  	43.383714 
839.136704  	43.398094 
840.573582  	43.351767 
842.010459  	43.296207 
843.447337  	43.244720 
844.884215  	43.178096 
846.321093  	43.164426 
847.757971  	43.166237 
849.194849  	43.117911 
850.631727  	43.049479 
852.068605  	42.966329 
853.505483  	42.902070 
854.942361  	42.865997 
856.379239  	42.796586 
857.816117  	42.728501 
859.252994  	42.689200 
860.689872  	42.640126 
862.126750  	42.611500 
863.563628  	42.590938 
865.000506  	42.523376 
866.437384  	42.450281 
867.874262  	42.406946 
869.311140  	42.369452 
870.748018  	42.335787 
872.184896  	42.319192 
873.621774  	42.313320 
875.058652  	42.301137 
876.495529  	42.303553 
877.932407  	42.355434 
879.369285  	42.423770 
880.806163  	42.446234 
882.243041  	42.409695 
883.679919  	42.357029 
885.116797  	42.320857 
886.553675  	42.271649 
887.990553  	42.185212 
889.427431  	42.091874 
890.864309  	42.010438 
892.301187  	41.919251 
893.738064  	41.815711 
895.174942  	41.728063 
896.611820  	41.664062 
898.048698  	41.611000 
899.485576  	41.561131 
900.922454  	41.501960 
902.359332  	41.441745 
903.796210  	41.405875 
905.233088  	41.376372 
906.669966  	41.338034 
908.106844  	41.319088 
909.543722  	41.312474 
910.980599  	41.290050 
912.417477  	41.289491 
913.854355  	41.348692 
915.291233  	41.401410 
916.728111  	41.388693 
918.164989  	41.381645 
919.601867  	41.411636 
921.038745  	41.418165 
922.475623  	41.435255 
923.912501  	41.491131 
925.349379  	41.519007 
926.786257  	41.518977 
928.223134  	41.502822 
929.660012  	41.454504 
931.096890  	41.420008 
932.533768  	41.413191 
933.970646  	41.414676 
935.407524  	41.437850 
936.844402  	41.465824 
938.281280  	41.501297 
939.718158  	41.593915 
941.155036  	41.743187 
942.591914  	41.915612 
944.028792  	42.114395 
945.465670  	42.377157 
946.902547  	42.707303 
948.339425  	43.075526 
949.776303  	43.475979 
951.213181  	43.873073 
952.650059  	44.262514 
954.086937  	44.675756 
955.523815  	45.047468 
956.960693  	45.382874 
958.397571  	45.750310 
959.834449  	46.108907 
961.271327  	46.450991 
962.708205  	46.789634 
964.145082  	47.127066 
965.581960  	47.470642 
967.018838  	47.756513 
968.455716  	48.019710 
969.892594  	48.279646 
971.329472  	48.434392 
972.766350  	48.545045 
974.203228  	48.643903 
975.640106  	48.700968 
977.076984  	48.789228 
978.513862  	48.823737 
979.950740  	48.783845 
981.387617  	48.791953 
982.824495  	48.770779 
984.261373  	48.712261 
985.698251  	48.672701 
987.135129  	48.587813 
988.572007  	48.511426 
990.008885  	48.444396 
991.445763  	48.315997 
992.882641  	48.202996 
994.319519  	48.110162 
995.756397  	47.997649 
997.193275  	47.886834 
998.630152  	47.766071 
1000.067030  	47.655591 
1001.503908  	47.531424 
1002.940786  	47.370486 
1004.377664  	47.240727 
1005.814542  	47.097445 
1007.251420  	46.904413 
1008.688298  	46.713321 
1010.125176  	46.476332 
1011.562054  	46.213388 
1012.998932  	45.994888 
1014.435810  	45.749714 
1015.872687  	45.438095 
1017.309565  	45.119080 
1018.746443  	44.889487 
1020.183321  	44.823514 
1021.620199  	44.855106 
1023.057077  	44.948506 
1024.493955  	45.162656 
1025.930833  	45.429735 
1027.367711  	45.652543 
1028.804589  	45.806261 
1030.241467  	45.886963 
1031.678345  	45.892557 
1033.115222  	45.812285 
1034.552100  	45.694463 
1035.988978  	45.558531 
1037.425856  	45.368430 
1038.862734  	45.192000 
1040.299612  	45.065149 
1041.736490  	44.937488 
1043.173368  	44.884167 
1044.610246  	44.983188 
1046.047124  	45.164198 
1047.484002  	45.340271 
1048.920880  	45.470465 
1050.357757  	45.548820 
1051.794635  	45.569799 
1053.231513  	45.564984 
1054.668391  	45.556857 
1056.105269  	45.498301 
1057.542147  	45.427538 
1058.979025  	45.371102 
1060.415903  	45.258653 
1061.852781  	45.147711 
1063.289659  	45.084974 
1064.726537  	44.999467 
1066.163415  	44.902211 
1067.600292  	44.787821 
1069.037170  	44.634619 
1070.474048  	44.509011 
1071.910926  	44.400818 
1073.347804  	44.276205 
1074.784682  	44.165130 
1076.221560  	44.057113 
1077.658438  	43.966458 
1079.095316  	43.916153 
1080.532194  	43.870622 
1081.969072  	43.809400 
1083.405950  	43.719033 
1084.842827  	43.637372 
1086.279705  	43.611932 
1087.716583  	43.575852 
1089.153461  	43.509917 
1090.590339  	43.463870 
1092.027217  	43.417173 
1093.464095  	43.369496 
1094.900973  	43.334356 
1096.337851  	43.299646 
1097.774729  	43.277747 
1099.211607  	43.254506 
1100.648485  	43.241602 
1102.085362  	43.270608 
1103.522240  	43.283850 
1104.959118  	43.271799 
1106.395996  	43.300461 
1107.832874  	43.348270 
1109.269752  	43.360356 
1110.706630  	43.351679 
1112.143508  	43.369715 
1113.580386  	43.427628 
1115.017264  	43.495811 
1116.454142  	43.552325 
1117.891020  	43.598741 
1119.327897  	43.636104 
1120.764775  	43.661578 
1122.201653  	43.707778 
1123.638531  	43.808496 
1125.075409  	43.922611 
1126.512287  	44.027241 
1127.949165  	44.144246 
1129.386043  	44.244770 
1130.822921  	44.325835 
1132.259799  	44.392855 
1133.696677  	44.413519 
1135.133555  	44.427165 
1136.570432  	44.462140 
1138.007310  	44.484250 
1139.444188  	44.491841 
1140.881066  	44.485331 
1142.317944  	44.478783 
1143.754822  	44.483683 
1145.191700  	44.468442 
1146.628578  	44.447679 
1148.065456  	44.424886 
1149.502334  	44.359576 
1150.939212  	44.289952 
1152.376090  	44.256854 
1153.812967  	44.228919 
1155.249845  	44.196147 
1156.686723  	44.173464 
1158.123601  	44.149768 
1159.560479  	44.115264 
1160.997357  	44.103683 
1162.434235  	44.126473 
1163.871113  	44.138229 
1165.307991  	44.140998 
1166.744869  	44.148875 
1168.181747  	44.139755 
1169.618625  	44.136279 
1171.055502  	44.126541 
1172.492380  	44.074309 
1173.929258  	44.018810 
1175.366136  	43.959062 
1176.803014  	43.876401 
1178.239892  	43.804266 
1179.676770  	43.732959 
1181.113648  	43.657207 
1182.550526  	43.601107 
1183.987404  	43.553700 
1185.424282  	43.502265 
1186.861160  	43.427786 
1188.298038  	43.343179 
1189.734915  	43.292407 
1191.171793  	43.243197 
1192.608671  	43.180293 
1194.045549  	43.138883 
1195.482427  	43.094974 
1196.919305  	43.047432 
1198.356183  	43.017749 
1199.793061  	42.982878 
1201.229939  	42.947209 
1202.666817  	42.911805 
1204.103695  	42.874344 
1205.540573  	42.868444 
1206.977450  	42.881039 
1208.414328  	42.886784 
1209.851206  	42.890146 
1211.288084  	42.881692 
1212.724962  	42.869057 
1214.161840  	42.863946 
1215.598718  	42.867816 
1217.035596  	42.875952 
1218.472474  	42.867724 
1219.909352  	42.866356 
1221.346230  	42.880829 
1222.783108  	42.871472 
1224.219985  	42.861575 
1225.656863  	42.864402 
1227.093741  	42.845577 
1228.530619  	42.821153 
1229.967497  	42.806375 
1231.404375  	42.795908 
1232.841253  	42.783164 
1234.278131  	42.757071 
1235.715009  	42.746698 
1237.151887  	42.752731 
1238.588765  	42.743137 
1240.025643  	42.735794 
1241.462520  	42.736108 
1242.899398  	42.748653 
1244.336276  	42.784690 
1245.773154  	42.806412 
1247.210032  	42.819978 
1248.646910  	42.847638 
1250.083788  	42.867107 
1251.520666  	42.889322 
1252.957544  	42.913671 
1254.394422  	42.929927 
1255.831300  	42.957364 
1257.268178  	42.975037 
1258.705055  	42.976903 
1260.141933  	42.995918 
1261.578811  	43.027650 
1263.015689  	43.044366 
1264.452567  	43.029934 
1265.889445  	43.018306 
1267.326323  	43.036977 
1268.763201  	43.039474 
1270.200079  	43.017308 
1271.636957  	42.995611 
1273.073835  	42.968799 
1274.510713  	42.950530 
1275.947590  	42.937691 
1277.384468  	42.918690 
1278.821346  	42.902036 
1280.258224  	42.869858 
1281.695102  	42.832192 
1283.131980  	42.805006 
1284.568858  	42.761657 
1286.005736  	42.708072 
1287.442614  	42.656165 
1288.879492  	42.614253 
1290.316370  	42.595384 
1291.753248  	42.570471 
1293.190125  	42.556697 
1294.627003  	42.575904 
1296.063881  	42.580949 
1297.500759  	42.585432 
1298.937637  	42.598821 
1300.374515  	42.588637 
1301.811393  	42.586885 
1303.248271  	42.590101 
1304.685149  	42.575620 
1306.122027  	42.569552 
1307.558905  	42.565238 
1308.995783  	42.556854 
1310.432660  	42.551472 
1311.869538  	42.543502 
1313.306416  	42.550199 
1314.743294  	42.554236 
1316.180172  	42.543172 
1317.617050  	42.543867 
1319.053928  	42.541886 
1320.490806  	42.531426 
1321.927684  	42.519165 
1323.364562  	42.499458 
1324.801440  	42.497613 
1326.238318  	42.502602 
1327.675195  	42.492975 
1329.112073  	42.480824 
1330.548951  	42.448321 
1331.985829  	42.417572 
1333.422707  	42.418136 
1334.859585  	42.408973 
1336.296463  	42.392198 
1337.733341  	42.362909 
1339.170219  	42.330986 
1340.607097  	42.340690 
1342.043975  	42.344400 
1343.480853  	42.312102 
1344.917730  	42.278031 
1346.354608  	42.250455 
1347.791486  	42.224074 
1349.228364  	42.204200 
1350.665242  	42.180868 
1352.102120  	42.147235 
1353.538998  	42.092532 
1354.975876  	42.062562 
1356.412754  	42.058925 
1357.849632  	42.020783 
1359.286510  	41.971815 
1360.723388  	41.921318 
1362.160265  	41.868303 
1363.597143  	41.862927 
1365.034021  	41.849141 
1366.470899  	41.789620 
1367.907777  	41.745612 
1369.344655  	41.713087 
1370.781533  	41.679690 
1372.218411  	41.661922 
1373.655289  	41.644226 
1375.092167  	41.701146 
1376.529045  	41.749624 
1377.965923  	41.761399 
1379.402800  	41.847229 
1380.839678  	41.929484 
1382.276556  	41.979472 
1383.713434  	42.046624 
1385.150312  	42.070561 
1386.587190  	42.112235 
1388.024068  	42.219006 
1389.460946  	42.271382 
1390.897824  	42.286135 
1392.334702  	42.232942 
1393.771580  	42.176406 
1395.208458  	42.166801 
1396.645335  	42.129165 
1398.082213  	42.062498 
1399.519091  	42.034937 
1400.955969  	41.992882 
1402.392847  	41.914434 
1403.829725  	41.838782 
1405.266603  	41.785083 
1406.703481  	41.741632 
1408.140359  	41.672418 
1409.577237  	41.602715 
1411.014115  	41.566094 
1412.450993  	41.507513 
1413.887871  	41.481405 
1415.324748  	41.456359 
1416.761626  	41.363192 
1418.198504  	41.341510 
1419.635382  	41.496633 
1421.072260  	41.557383 
1422.509138  	41.509987 
1423.946016  	41.543712 
1425.382894  	41.686869 
1426.819772  	41.710201 
1428.256650  	41.710942 
1429.693528  	41.798285 
1431.130406  	41.868594 
1432.567283  	41.904243 
1434.004161  	41.906660 
1435.441039  	41.868625 
1436.877917  	41.999632 
1438.314795  	42.135509 
1439.751673  	42.080051 
1441.188551  	42.079406 
1442.625429  	42.138656 
1444.062307  	42.174672 
1445.499185  	42.219960 
1446.936063  	42.267180 
1448.372941  	42.419604 
1449.809818  	42.562939 
1451.246696  	42.587844 
1452.683574  	42.666500 
1454.120452  	42.714804 
1455.557330  	42.691974 
1456.994208  	42.908663 
1458.431086  	43.196466 
1459.867964  	43.288777 
1461.304842  	43.355193 
1462.741720  	43.350351 
1464.178598  	43.421161 
1465.615476  	43.611668 
1467.052353  	43.696847 
1468.489231  	43.726525 
1469.926109  	43.736629 
1471.362987  	43.736357 
1472.799865  	43.820895 
1474.236743  	43.882328 
1475.673621  	43.892397 
1477.110499  	43.925642 
1478.547377  	43.945731 
1479.984255  	43.950974 
1481.421133  	43.969408 
1482.858011  	44.002011 
1484.294888  	44.002218 
1485.731766  	43.943285 
1487.168644  	43.889900 
1488.605522  	43.817254 
1490.042400  	43.795901 
1491.479278  	43.827097 
1492.916156  	43.762032 
1494.353034  	43.665208 
1495.789912  	43.600329 
1497.226790  	43.568024 
1498.663668  	43.547325 
1500.100546  	43.505816 
1501.537423  	43.446755 
1502.974301  	43.372266 
1504.411179  	43.244883 
1505.848057  	43.130781 
1507.284935  	43.169918 
1508.721813  	43.130245 
1510.158691  	43.024045 
1511.595569  	42.933491 
1513.032447  	42.876411 
1514.469325  	42.796567 
1515.906203  	42.687052 
1517.343081  	42.680002 
1518.779958  	42.621820 
1520.216836  	42.462786 
1521.653714  	42.443970 
