##TITLE=No Description
##DATA TYPE=INFRARED SPECTRUM
##XUNITS=1/CM
##YUNITS=%T
399.452061  	59.585637 
400.888939  	58.229174 
402.325817  	58.866509 
403.762695  	58.981915 
405.199573  	59.601676 
406.636451  	61.153316 
408.073328  	59.760757 
409.510206  	59.342577 
410.947084  	60.204314 
412.383962  	59.759596 
413.820840  	59.774859 
415.257718  	59.244538 
416.694596  	59.529620 
418.131474  	61.221644 
419.568352  	59.328054 
421.005230  	58.759376 
422.442108  	59.450671 
423.878986  	59.452974 
425.315863  	59.854521 
426.752741  	58.716871 
428.189619  	58.002762 
429.626497  	59.210705 
431.063375  	59.486677 
432.500253  	59.669239 
433.937131  	59.304968 
435.374009  	58.150766 
436.810887  	58.698340 
438.247765  	58.577618 
439.684643  	58.091272 
441.121521  	58.925535 
442.558398  	58.673713 
443.995276  	58.675066 
445.432154  	59.140636 
446.869032  	58.640465 
448.305910  	59.268175 
449.742788  	59.500984 
451.179666  	58.744610 
452.616544  	58.672404 
454.053422  	58.175215 
455.490300  	58.203950 
456.927178  	58.865368 
458.364056  	58.763010 
459.800933  	59.378067 
461.237811  	59.302207 
462.674689  	58.656839 
464.111567  	59.272020 
465.548445  	59.222711 
466.985323  	59.283499 
468.422201  	60.316282 
469.859079  	60.005974 
471.295957  	59.816830 
472.732835  	60.466072 
474.169713  	60.315900 
475.606591  	60.196331 
477.043469  	60.345055 
478.480346  	60.730617 
479.917224  	61.010969 
481.354102  	60.490315 
482.790980  	60.263345 
484.227858  	60.451880 
485.664736  	60.424557 
487.101614  	60.497645 
488.538492  	60.309351 
489.975370  	60.207745 
491.412248  	60.245154 
492.849126  	59.943789 
494.286004  	59.955872 
495.722881  	59.770065 
497.159759  	59.205293 
498.596637  	59.179510 
500.033515  	59.018076 
501.470393  	58.838327 
502.907271  	59.119812 
504.344149  	59.059151 
505.781027  	59.194287 
507.217905  	59.506596 
508.654783  	59.568418 
510.091661  	59.942478 
511.528539  	60.106345 
512.965416  	60.178532 
514.402294  	60.658016 
515.839172  	60.726789 
517.276050  	60.684991 
518.712928  	60.844287 
520.149806  	60.716404 
521.586684  	60.816391 
523.023562  	60.938022 
524.460440  	60.829974 
525.897318  	60.921945 
527.334196  	60.965692 
528.771074  	61.122067 
530.207951  	61.441665 
531.644829  	61.415994 
533.081707  	61.340160 
534.518585  	61.385172 
535.955463  	61.458834 
537.392341  	61.574737 
538.829219  	61.508408 
540.266097  	61.587443 
541.702975  	61.803620 
543.139853  	61.665514 
544.576731  	61.510704 
546.013609  	61.510243 
547.450486  	61.560010 
548.887364  	61.660402 
550.324242  	61.564630 
551.761120  	61.484127 
553.197998  	61.437774 
554.634876  	61.232685 
556.071754  	61.382229 
557.508632  	61.803959 
558.945510  	62.060923 
560.382388  	62.269873 
561.819266  	62.384264 
563.256144  	62.463203 
564.693021  	62.601331 
566.129899  	62.655635 
567.566777  	62.639542 
569.003655  	62.530673 
570.440533  	62.511525 
571.877411  	62.619011 
573.314289  	62.517300 
574.751167  	62.489937 
576.188045  	62.650850 
577.624923  	62.606012 
579.061801  	62.524573 
580.498679  	62.452137 
581.935556  	62.384278 
583.372434  	62.476693 
584.809312  	62.407979 
586.246190  	62.247531 
587.683068  	62.247165 
589.119946  	62.180165 
590.556824  	62.109829 
591.993702  	62.011656 
593.430580  	61.762899 
594.867458  	61.545331 
596.304336  	61.320809 
597.741214  	61.332374 
599.178091  	61.833934 
600.614969  	62.512934 
602.051847  	63.142488 
603.488725  	63.560935 
604.925603  	63.748123 
606.362481  	63.927223 
607.799359  	63.956663 
609.236237  	63.920038 
610.673115  	63.967773 
612.109993  	63.968175 
613.546871  	63.952202 
614.983749  	63.939038 
616.420626  	63.900280 
617.857504  	63.890965 
619.294382  	63.871203 
620.731260  	63.852944 
622.168138  	63.859040 
623.605016  	63.723993 
625.041894  	63.594657 
626.478772  	63.569640 
627.915650  	63.558523 
629.352528  	63.668265 
630.789406  	63.653895 
632.226284  	63.470111 
633.663161  	63.446149 
635.100039  	63.467267 
636.536917  	63.492020 
637.973795  	63.593014 
639.410673  	63.675340 
640.847551  	63.779454 
642.284429  	63.852439 
643.721307  	63.923826 
645.158185  	64.125041 
646.595063  	64.256994 
648.031941  	64.404075 
649.468819  	64.635351 
650.905696  	64.785615 
652.342574  	64.893421 
653.779452  	64.978742 
655.216330  	65.013754 
656.653208  	65.077341 
658.090086  	65.146188 
659.526964  	65.195033 
660.963842  	65.242160 
662.400720  	65.245321 
663.837598  	65.331726 
665.274476  	65.522347 
666.711354  	65.766155 
668.148231  	66.278678 
669.585109  	66.785251 
671.021987  	67.054987 
672.458865  	67.412592 
673.895743  	67.656226 
675.332621  	67.871096 
676.769499  	68.038618 
678.206377  	68.144988 
679.643255  	68.263282 
681.080133  	68.403231 
682.517011  	68.486476 
683.953889  	68.589309 
685.390766  	68.693501 
686.827644  	68.800634 
688.264522  	68.896015 
689.701400  	68.870680 
691.138278  	68.967299 
692.575156  	69.127836 
694.012034  	69.144339 
695.448912  	69.207144 
696.885790  	69.289568 
698.322668  	69.336186 
699.759546  	69.391096 
701.196424  	69.444221 
702.633301  	69.529706 
704.070179  	69.579575 
705.507057  	69.605321 
706.943935  	69.672982 
708.380813  	69.708135 
709.817691  	69.728727 
711.254569  	69.774979 
712.691447  	69.910133 
714.128325  	69.881735 
715.565203  	69.878229 
717.002081  	69.911870 
718.438959  	69.974769 
719.875837  	69.962043 
721.312714  	69.954966 
722.749592  	70.060363 
724.186470  	70.113729 
725.623348  	70.122979 
727.060226  	70.209762 
728.497104  	70.261427 
729.933982  	70.309598 
731.370860  	70.338739 
732.807738  	70.373881 
734.244616  	70.435172 
735.681494  	70.513440 
737.118372  	70.577323 
738.555249  	70.529654 
739.992127  	70.463234 
741.429005  	70.582536 
742.865883  	70.703162 
744.302761  	70.697434 
745.739639  	70.694702 
747.176517  	70.655640 
748.613395  	70.596898 
750.050273  	70.572764 
751.487151  	70.571909 
752.924029  	70.693431 
754.360907  	70.874506 
755.797784  	71.012579 
757.234662  	71.159663 
758.671540  	71.250738 
760.108418  	71.291922 
761.545296  	71.363808 
762.982174  	71.432464 
764.419052  	71.522831 
765.855930  	71.609624 
767.292808  	71.665259 
768.729686  	71.730225 
770.166564  	71.725652 
771.603442  	71.702290 
773.040319  	71.755540 
774.477197  	71.794207 
775.914075  	71.835201 
777.350953  	71.892979 
778.787831  	71.897542 
780.224709  	71.893714 
781.661587  	71.893415 
783.098465  	71.900332 
784.535343  	71.955759 
785.972221  	72.066004 
787.409099  	72.228196 
788.845977  	72.346330 
790.282854  	72.425660 
791.719732  	72.581352 
793.156610  	72.719833 
794.593488  	72.828321 
796.030366  	72.995054 
797.467244  	73.123614 
798.904122  	73.202608 
800.341000  	73.267717 
801.777878  	73.299742 
803.214756  	73.344769 
804.651634  	73.349545 
806.088512  	73.285739 
807.525389  	73.218201 
808.962267  	73.145566 
810.399145  	73.085093 
811.836023  	72.969487 
813.272901  	72.802070 
814.709779  	72.841028 
816.146657  	73.160431 
817.583535  	73.591076 
819.020413  	73.989115 
820.457291  	74.315235 
821.894169  	74.661751 
823.331047  	74.976525 
824.767924  	75.200941 
826.204802  	75.498035 
827.641680  	75.775656 
829.078558  	75.906596 
830.515436  	76.070863 
831.952314  	76.306813 
833.389192  	76.573092 
834.826070  	76.823697 
836.262948  	76.942640 
837.699826  	77.029204 
839.136704  	77.158318 
840.573582  	77.269588 
842.010459  	77.389046 
843.447337  	77.499762 
844.884215  	77.609100 
846.321093  	77.708833 
847.757971  	77.739728 
849.194849  	77.799304 
850.631727  	77.864144 
852.068605  	77.842106 
853.505483  	77.833476 
854.942361  	77.828831 
856.379239  	77.811354 
857.816117  	77.845643 
859.252994  	77.858927 
860.689872  	77.823185 
862.126750  	77.776495 
863.563628  	77.755908 
865.000506  	77.778317 
866.437384  	77.757211 
867.874262  	77.722494 
869.311140  	77.726157 
870.748018  	77.732356 
872.184896  	77.811045 
873.621774  	77.875981 
875.058652  	77.857094 
876.495529  	77.957783 
877.932407  	78.154531 
879.369285  	78.354114 
880.806163  	78.598119 
882.243041  	78.790614 
883.679919  	78.983115 
885.116797  	79.250719 
886.553675  	79.493843 
887.990553  	79.750746 
889.427431  	79.997347 
890.864309  	80.223038 
892.301187  	80.537238 
893.738064  	80.815529 
895.174942  	81.056680 
896.611820  	81.378192 
898.048698  	81.653110 
899.485576  	81.898718 
900.922454  	82.165615 
902.359332  	82.382344 
903.796210  	82.600435 
905.233088  	82.767452 
906.669966  	82.856239 
908.106844  	82.973316 
909.543722  	83.082873 
910.980599  	83.217985 
912.417477  	83.449884 
913.854355  	83.693193 
915.291233  	83.869951 
916.728111  	83.939126 
918.164989  	83.956365 
919.601867  	83.960067 
921.038745  	83.901368 
922.475623  	83.844077 
923.912501  	83.776205 
925.349379  	83.677919 
926.786257  	83.637488 
928.223134  	83.535974 
929.660012  	83.333648 
931.096890  	83.184523 
932.533768  	83.077841 
933.970646  	82.986066 
935.407524  	82.881679 
936.844402  	82.749698 
938.281280  	82.704862 
939.718158  	82.713594 
941.155036  	82.689351 
942.591914  	82.636450 
944.028792  	82.531086 
945.465670  	82.452877 
946.902547  	82.415385 
948.339425  	82.363208 
949.776303  	82.388776 
951.213181  	82.443337 
952.650059  	82.447981 
954.086937  	82.457397 
955.523815  	82.427543 
956.960693  	82.415992 
958.397571  	82.477327 
959.834449  	82.482542 
961.271327  	82.443128 
962.708205  	82.397447 
964.145082  	82.371788 
965.581960  	82.448476 
967.018838  	82.509543 
968.455716  	82.486871 
969.892594  	82.461158 
971.329472  	82.418829 
972.766350  	82.386786 
974.203228  	82.348063 
975.640106  	82.264363 
977.076984  	82.226505 
978.513862  	82.202151 
979.950740  	82.132799 
981.387617  	82.051245 
982.824495  	81.953962 
984.261373  	81.894555 
985.698251  	81.845040 
987.135129  	81.732366 
988.572007  	81.635439 
990.008885  	81.551359 
991.445763  	81.453304 
992.882641  	81.364870 
994.319519  	81.225567 
995.756397  	81.083739 
997.193275  	80.971328 
998.630152  	80.795461 
1000.067030  	80.607758 
1001.503908  	80.449970 
1002.940786  	80.286078 
1004.377664  	80.135907 
1005.814542  	79.954762 
1007.251420  	79.732005 
1008.688298  	79.517237 
1010.125176  	79.289796 
1011.562054  	79.057084 
1012.998932  	78.812641 
1014.435810  	78.536217 
1015.872687  	78.282801 
1017.309565  	78.047664 
1018.746443  	77.813421 
1020.183321  	77.609581 
1021.620199  	77.379166 
1023.057077  	77.098932 
1024.493955  	76.810521 
1025.930833  	76.477898 
1027.367711  	76.115140 
1028.804589  	75.772338 
1030.241467  	75.380406 
1031.678345  	74.931817 
1033.115222  	74.502197 
1034.552100  	74.073364 
1035.988978  	73.703900 
1037.425856  	73.541378 
1038.862734  	73.627453 
1040.299612  	73.954489 
1041.736490  	74.413761 
1043.173368  	74.790323 
1044.610246  	74.936969 
1046.047124  	74.827768 
1047.484002  	74.506268 
1048.920880  	74.079157 
1050.357757  	73.694420 
1051.794635  	73.494534 
1053.231513  	73.484787 
1054.668391  	73.560461 
1056.105269  	73.669310 
1057.542147  	73.770487 
1058.979025  	73.869202 
1060.415903  	74.047921 
1061.852781  	74.313980 
1063.289659  	74.623538 
1064.726537  	74.940675 
1066.163415  	75.201209 
1067.600292  	75.414990 
1069.037170  	75.637500 
1070.474048  	75.816826 
1071.910926  	75.958489 
1073.347804  	76.125742 
1074.784682  	76.270695 
1076.221560  	76.401443 
1077.658438  	76.535358 
1079.095316  	76.621486 
1080.532194  	76.720511 
1081.969072  	76.831269 
1083.405950  	76.908809 
1084.842827  	77.033831 
1086.279705  	77.138093 
1087.716583  	77.146983 
1089.153461  	77.169519 
1090.590339  	77.170466 
1092.027217  	77.084348 
1093.464095  	76.984945 
1094.900973  	76.881537 
1096.337851  	76.742909 
1097.774729  	76.588632 
1099.211607  	76.449931 
1100.648485  	76.300968 
1102.085362  	76.095231 
1103.522240  	75.863322 
1104.959118  	75.594426 
1106.395996  	75.251253 
1107.832874  	74.897274 
1109.269752  	74.542435 
1110.706630  	74.152919 
1112.143508  	73.746578 
1113.580386  	73.290699 
1115.017264  	72.823039 
1116.454142  	72.515333 
1117.891020  	72.362717 
1119.327897  	72.217267 
1120.764775  	72.110300 
1122.201653  	72.083862 
1123.638531  	72.056959 
1125.075409  	72.010394 
1126.512287  	71.959511 
1127.949165  	71.895537 
1129.386043  	71.805961 
1130.822921  	71.653054 
1132.259799  	71.423395 
1133.696677  	71.146252 
1135.133555  	70.850963 
1136.570432  	70.567676 
1138.007310  	70.327498 
1139.444188  	70.144897 
1140.881066  	69.948699 
1142.317944  	69.645718 
1143.754822  	69.270626 
1145.191700  	68.848182 
1146.628578  	68.375123 
1148.065456  	67.936116 
1149.502334  	67.531010 
1150.939212  	67.155154 
1152.376090  	66.923245 
1153.812967  	66.844506 
1155.249845  	66.887075 
1156.686723  	67.008139 
1158.123601  	67.125659 
1159.560479  	67.249274 
1160.997357  	67.350268 
1162.434235  	67.421741 
1163.871113  	67.530374 
1165.307991  	67.622181 
1166.744869  	67.676360 
1168.181747  	67.718252 
1169.618625  	67.715347 
1171.055502  	67.706519 
1172.492380  	67.670505 
1173.929258  	67.557865 
1175.366136  	67.458535 
1176.803014  	67.402729 
1178.239892  	67.348208 
1179.676770  	67.257380 
1181.113648  	67.107068 
1182.550526  	66.941443 
1183.987404  	66.716880 
1185.424282  	66.424234 
1186.861160  	66.175399 
1188.298038  	65.926415 
1189.734915  	65.670958 
1191.171793  	65.478284 
1192.608671  	65.276389 
1194.045549  	65.106343 
1195.482427  	64.988973 
1196.919305  	64.836494 
1198.356183  	64.714409 
1199.793061  	64.605411 
1201.229939  	64.471003 
1202.666817  	64.372914 
1204.103695  	64.263696 
1205.540573  	64.198823 
1206.977450  	64.218986 
1208.414328  	64.228096 
1209.851206  	64.286158 
1211.288084  	64.385687 
1212.724962  	64.479887 
1214.161840  	64.607902 
1215.598718  	64.675360 
1217.035596  	64.715408 
1218.472474  	64.787286 
1219.909352  	64.785502 
1221.346230  	64.787225 
1222.783108  	64.803442 
1224.219985  	64.737021 
1225.656863  	64.691571 
1227.093741  	64.663111 
1228.530619  	64.612834 
1229.967497  	64.592613 
1231.404375  	64.542103 
1232.841253  	64.494706 
1234.278131  	64.484566 
1235.715009  	64.451297 
1237.151887  	64.436743 
1238.588765  	64.416153 
1240.025643  	64.379195 
1241.462520  	64.385144 
1242.899398  	64.391604 
1244.336276  	64.426044 
1245.773154  	64.491279 
1247.210032  	64.537245 
1248.646910  	64.607944 
1250.083788  	64.655496 
1251.520666  	64.683785 
1252.957544  	64.741332 
1254.394422  	64.742311 
1255.831300  	64.740637 
1257.268178  	64.770965 
1258.705055  	64.756817 
1260.141933  	64.750850 
1261.578811  	64.708168 
1263.015689  	64.604607 
1264.452567  	64.523033 
1265.889445  	64.386722 
1267.326323  	64.212294 
1268.763201  	64.057009 
1270.200079  	63.868167 
1271.636957  	63.705487 
1273.073835  	63.554519 
1274.510713  	63.416034 
1275.947590  	63.352164 
1277.384468  	63.224029 
1278.821346  	63.060467 
1280.258224  	62.961161 
1281.695102  	62.824962 
1283.131980  	62.707572 
1284.568858  	62.644449 
1286.005736  	62.627711 
1287.442614  	62.761786 
1288.879492  	62.982469 
1290.316370  	63.278463 
1291.753248  	63.651541 
1293.190125  	63.949996 
1294.627003  	64.216898 
1296.063881  	64.502189 
1297.500759  	64.811541 
1298.937637  	65.231724 
1300.374515  	65.643703 
1301.811393  	65.836567 
1303.248271  	66.329582 
1304.685149  	66.470457 
1306.122027  	66.698571 
1307.558905  	66.964564 
1308.995783  	67.248997 
1310.432660  	67.666789 
1311.869538  	67.864104 
1313.306416  	68.062164 
1314.743294  	68.258008 
1316.180172  	68.443237 
1317.617050  	68.611106 
1319.053928  	68.777749 
1320.490806  	68.955732 
1321.927684  	69.121884 
1323.364562  	69.280793 
1324.801440  	69.418797 
1326.238318  	69.570239 
1327.675195  	69.529799 
1329.112073  	69.464414 
1330.548951  	69.398997 
1331.985829  	69.338080 
1333.422707  	69.271747 
1334.859585  	69.203623 
1336.296463  	69.122956 
1337.733341  	69.066111 
1339.170219  	69.029303 
1340.607097  	69.025903 
1342.043975  	69.026362 
1343.480853  	69.002104 
1344.917730  	69.029581 
1346.354608  	69.058097 
1347.791486  	69.074834 
1349.228364  	69.131400 
1350.665242  	69.178464 
1352.102120  	69.205749 
1353.538998  	69.262533 
1354.975876  	69.312630 
1356.412754  	69.382831 
1357.849632  	69.449487 
1359.286510  	69.485020 
1360.723388  	69.537779 
1362.160265  	69.584725 
1363.597143  	69.657308 
1365.034021  	69.743674 
1366.470899  	69.788404 
1367.907777  	69.851379 
1369.344655  	69.940417 
1370.781533  	69.987504 
1372.218411  	70.018171 
1373.655289  	70.071056 
1375.092167  	70.160643 
1376.529045  	70.221487 
1377.965923  	70.255311 
1379.402800  	70.343784 
1380.839678  	70.432352 
1382.276556  	70.483637 
1383.713434  	70.573375 
1385.150312  	70.621883 
1386.587190  	70.691470 
1388.024068  	70.905727 
1389.460946  	71.095756 
1390.897824  	71.242172 
1392.334702  	71.361870 
1393.771580  	71.461761 
1395.208458  	71.649857 
1396.645335  	71.830186 
1398.082213  	71.949573 
1399.519091  	72.134188 
1400.955969  	72.259984 
1402.392847  	72.304775 
1403.829725  	72.442629 
1405.266603  	72.660538 
1406.703481  	72.861328 
1408.140359  	73.021634 
1409.577237  	73.084426 
1411.014115  	73.149750 
1412.450993  	73.197271 
1413.887871  	73.261529 
1415.324748  	73.259850 
1416.761626  	73.230555 
1418.198504  	73.203880 
1419.635382  	73.266644 
1421.072260  	73.220473 
1422.509138  	73.102055 
1423.946016  	73.037991 
1425.382894  	73.000239 
1426.819772  	72.895843 
1428.256650  	72.692427 
1429.693528  	72.516550 
1431.130406  	72.320468 
1432.567283  	72.085753 
1434.004161  	71.834982 
1435.441039  	71.615361 
1436.877917  	71.584749 
1438.314795  	71.572962 
1439.751673  	71.372757 
1441.188551  	71.225391 
1442.625429  	71.178682 
1444.062307  	71.174343 
1445.499185  	71.206007 
1446.936063  	71.244776 
1448.372941  	71.332474 
1449.809818  	71.416235 
1451.246696  	71.444417 
1452.683574  	71.519361 
1454.120452  	71.499508 
1455.557330  	71.400866 
1456.994208  	71.457931 
1458.431086  	71.562361 
1459.867964  	71.491199 
1461.304842  	71.436641 
1462.741720  	71.390444 
1464.178598  	71.416404 
1465.615476  	71.537312 
1467.052353  	71.564382 
1468.489231  	71.567426 
1469.926109  	71.508161 
1471.362987  	71.424648 
1472.799865  	71.457362 
1474.236743  	71.469341 
1475.673621  	71.380915 
1477.110499  	71.372257 
1478.547377  	71.336454 
1479.984255  	71.227461 
1481.421133  	71.116182 
1482.858011  	70.970983 
1484.294888  	70.792407 
1485.731766  	70.506349 
1487.168644  	70.221591 
1488.605522  	69.844960 
1490.042400  	69.429130 
1491.479278  	69.059704 
1492.916156  	68.679508 
1494.353034  	68.241848 
1495.789912  	67.835025 
1497.226790  	67.568753 
1498.663668  	67.254455 
1500.100546  	66.902465 
1501.537423  	66.644153 
1502.974301  	66.399957 
1504.411179  	66.203448 
1505.848057  	66.044254 
1507.284935  	66.346877 
1508.721813  	66.525120 
1510.158691  	66.466393 
1511.595569  	66.547494 
1513.032447  	66.703841 
1514.469325  	66.700977 
1515.906203  	66.690745 
1517.343081  	66.947891 
1518.779958  	67.139317 
1520.216836  	67.157997 
1521.653714  	67.633132 
