##TITLE=No Description
##DATA TYPE=INFRARED SPECTRUM
##XUNITS=1/CM
##YUNITS=%T
399.452061  	35.627707 
400.888939  	33.486564 
402.325817  	32.390885 
403.762695  	31.479188 
405.199573  	30.070838 
406.636451  	31.070360 
408.073328  	29.968195 
409.510206  	28.034401 
410.947084  	27.841242 
412.383962  	27.419062 
413.820840  	28.053332 
415.257718  	26.943231 
416.694596  	24.749532 
418.131474  	25.378189 
419.568352  	23.907748 
421.005230  	23.233393 
422.442108  	24.640450 
423.878986  	23.604728 
425.315863  	22.614088 
426.752741  	22.275861 
428.189619  	21.631580 
429.626497  	21.662169 
431.063375  	20.279970 
432.500253  	19.585760 
433.937131  	20.823034 
435.374009  	20.196442 
436.810887  	19.835707 
438.247765  	19.998697 
439.684643  	19.136508 
441.121521  	19.547017 
442.558398  	19.435142 
443.995276  	18.669072 
445.432154  	19.406720 
446.869032  	19.187585 
448.305910  	19.129768 
449.742788  	19.692231 
451.179666  	19.559581 
452.616544  	20.222164 
454.053422  	20.661897 
455.490300  	20.880098 
456.927178  	22.233251 
458.364056  	22.590611 
459.800933  	22.574054 
461.237811  	23.281219 
462.674689  	24.085873 
464.111567  	25.643647 
465.548445  	26.457018 
466.985323  	27.123318 
468.422201  	29.253853 
469.859079  	30.431125 
471.295957  	31.587729 
472.732835  	33.983664 
474.169713  	35.339642 
475.606591  	36.927992 
477.043469  	39.318764 
478.480346  	41.476743 
479.917224  	43.906771 
481.354102  	46.044418 
482.790980  	47.799128 
484.227858  	49.907200 
485.664736  	51.888288 
487.101614  	54.064161 
488.538492  	56.415975 
489.975370  	58.311469 
491.412248  	59.870070 
492.849126  	61.126481 
494.286004  	62.517626 
495.722881  	64.087960 
497.159759  	64.935166 
498.596637  	65.526127 
500.033515  	66.439593 
501.470393  	67.351947 
502.907271  	68.211726 
504.344149  	68.778370 
505.781027  	69.276006 
507.217905  	69.818184 
508.654783  	69.882196 
510.091661  	69.988728 
511.528539  	70.505574 
512.965416  	70.953361 
514.402294  	71.223613 
515.839172  	71.179195 
517.276050  	71.101347 
518.712928  	71.380229 
520.149806  	71.462353 
521.586684  	71.451033 
523.023562  	71.558348 
524.460440  	71.522858 
525.897318  	71.519259 
527.334196  	71.419408 
528.771074  	71.293354 
530.207951  	71.483864 
531.644829  	71.505114 
533.081707  	71.316710 
534.518585  	71.259678 
535.955463  	71.129250 
537.392341  	71.070277 
538.829219  	71.105292 
540.266097  	71.071299 
541.702975  	71.159061 
543.139853  	71.161279 
544.576731  	71.037365 
546.013609  	71.037977 
547.450486  	71.065546 
548.887364  	71.131949 
550.324242  	71.172075 
551.761120  	71.214383 
553.197998  	71.468944 
554.634876  	71.578516 
556.071754  	71.540348 
557.508632  	71.695522 
558.945510  	71.813000 
560.382388  	71.937167 
561.819266  	72.188041 
563.256144  	72.320383 
564.693021  	72.339459 
566.129899  	72.298847 
567.566777  	72.427384 
569.003655  	72.853118 
570.440533  	73.148426 
571.877411  	73.344228 
573.314289  	73.565667 
574.751167  	73.620038 
576.188045  	73.813245 
577.624923  	74.174980 
579.061801  	74.341416 
580.498679  	74.454872 
581.935556  	74.570120 
583.372434  	74.717041 
584.809312  	75.054926 
586.246190  	75.339360 
587.683068  	75.523572 
589.119946  	75.830403 
590.556824  	76.107304 
591.993702  	76.219569 
593.430580  	76.363698 
594.867458  	76.666274 
596.304336  	76.930230 
597.741214  	77.050755 
599.178091  	77.259400 
600.614969  	77.488812 
602.051847  	77.583539 
603.488725  	77.776182 
604.925603  	77.944173 
606.362481  	78.095483 
607.799359  	78.262200 
609.236237  	78.487145 
610.673115  	78.662869 
612.109993  	78.812878 
613.546871  	78.931562 
614.983749  	78.991497 
616.420626  	79.040201 
617.857504  	79.141371 
619.294382  	79.291633 
620.731260  	79.428394 
622.168138  	79.567093 
623.605016  	79.628645 
625.041894  	79.672776 
626.478772  	79.763318 
627.915650  	79.822839 
629.352528  	79.828992 
630.789406  	79.889233 
632.226284  	79.950382 
633.663161  	79.982359 
635.100039  	80.036393 
636.536917  	80.061989 
637.973795  	80.125948 
639.410673  	80.188012 
640.847551  	80.238970 
642.284429  	80.307692 
643.721307  	80.351505 
645.158185  	80.434757 
646.595063  	80.480671 
648.031941  	80.498726 
649.468819  	80.587414 
650.905696  	80.676108 
652.342574  	80.689517 
653.779452  	80.728926 
655.216330  	80.810857 
656.653208  	80.845440 
658.090086  	80.846093 
659.526964  	80.874429 
660.963842  	80.979513 
662.400720  	81.058634 
663.837598  	81.074847 
665.274476  	81.118050 
666.711354  	81.146520 
668.148231  	81.139063 
669.585109  	81.204932 
671.021987  	81.151570 
672.458865  	81.103766 
673.895743  	81.165634 
675.332621  	81.191019 
676.769499  	81.226021 
678.206377  	81.272958 
679.643255  	81.269962 
681.080133  	81.293984 
682.517011  	81.347726 
683.953889  	81.348748 
685.390766  	81.353287 
686.827644  	81.322795 
688.264522  	81.310505 
689.701400  	81.360590 
691.138278  	81.368651 
692.575156  	81.327613 
694.012034  	81.305485 
695.448912  	81.311580 
696.885790  	81.332654 
698.322668  	81.345219 
699.759546  	81.352745 
701.196424  	81.348967 
702.633301  	81.307046 
704.070179  	81.308156 
705.507057  	81.305431 
706.943935  	81.293131 
708.380813  	81.320575 
709.817691  	81.281928 
711.254569  	81.226840 
712.691447  	81.259200 
714.128325  	81.261833 
715.565203  	81.226511 
717.002081  	81.197038 
718.438959  	81.179359 
719.875837  	81.209493 
721.312714  	81.207190 
722.749592  	81.157600 
724.186470  	81.125305 
725.623348  	81.119029 
727.060226  	81.081584 
728.497104  	81.000369 
729.933982  	80.941579 
731.370860  	80.993456 
732.807738  	81.001668 
734.244616  	80.904927 
735.681494  	80.863094 
737.118372  	80.843386 
738.555249  	80.839407 
739.992127  	80.848566 
741.429005  	80.745390 
742.865883  	80.680670 
744.302761  	80.706486 
745.739639  	80.640057 
747.176517  	80.582254 
748.613395  	80.569209 
750.050273  	80.504981 
751.487151  	80.493551 
752.924029  	80.514810 
754.360907  	80.481511 
755.797784  	80.431323 
757.234662  	80.350289 
758.671540  	80.272073 
760.108418  	80.229612 
761.545296  	80.157679 
762.982174  	80.043932 
764.419052  	79.903927 
765.855930  	79.750000 
767.292808  	79.520125 
768.729686  	79.087561 
770.166564  	78.523974 
771.603442  	77.961798 
773.040319  	77.346990 
774.477197  	76.600477 
775.914075  	75.725720 
777.350953  	74.831694 
778.787831  	73.993186 
780.224709  	73.178441 
781.661587  	72.453997 
783.098465  	71.847562 
784.535343  	71.339321 
785.972221  	70.925220 
787.409099  	70.479553 
788.845977  	70.066219 
790.282854  	69.802151 
791.719732  	69.607153 
793.156610  	69.545415 
794.593488  	69.578150 
796.030366  	69.581731 
797.467244  	69.663927 
798.904122  	69.803354 
800.341000  	69.959699 
801.777878  	70.187520 
803.214756  	70.433117 
804.651634  	70.743744 
806.088512  	71.135119 
807.525389  	71.527662 
808.962267  	71.942834 
810.399145  	72.397064 
811.836023  	72.903064 
813.272901  	73.407050 
814.709779  	73.904237 
816.146657  	74.505833 
817.583535  	75.099174 
819.020413  	75.643205 
820.457291  	76.240880 
821.894169  	76.827223 
823.331047  	77.486395 
824.767924  	78.211163 
826.204802  	78.815459 
827.641680  	79.432577 
829.078558  	80.097661 
830.515436  	80.698789 
831.952314  	81.333552 
833.389192  	81.991617 
834.826070  	82.622295 
836.262948  	83.225673 
837.699826  	83.788575 
839.136704  	84.400232 
840.573582  	84.959485 
842.010459  	85.344449 
843.447337  	85.726374 
844.884215  	86.108878 
846.321093  	86.367922 
847.757971  	86.594587 
849.194849  	86.843844 
850.631727  	87.056607 
852.068605  	87.227541 
853.505483  	87.360763 
854.942361  	87.415898 
856.379239  	87.432305 
857.816117  	87.499851 
859.252994  	87.552649 
860.689872  	87.553609 
862.126750  	87.574717 
863.563628  	87.550486 
865.000506  	87.505165 
866.437384  	87.521511 
867.874262  	87.455439 
869.311140  	87.343855 
870.748018  	87.332828 
872.184896  	87.282148 
873.621774  	87.148334 
875.058652  	87.037163 
876.495529  	86.929875 
877.932407  	86.785406 
879.369285  	86.592601 
880.806163  	86.417587 
882.243041  	86.274847 
883.679919  	86.042610 
885.116797  	85.754793 
886.553675  	85.494027 
887.990553  	85.229237 
889.427431  	84.940147 
890.864309  	84.572351 
892.301187  	84.182830 
893.738064  	83.845577 
895.174942  	83.446291 
896.611820  	83.024560 
898.048698  	82.624578 
899.485576  	82.152654 
900.922454  	81.721438 
902.359332  	81.330472 
903.796210  	80.852773 
905.233088  	80.361276 
906.669966  	79.874097 
908.106844  	79.422053 
909.543722  	78.988188 
910.980599  	78.450174 
912.417477  	77.940505 
913.854355  	77.444677 
915.291233  	76.850831 
916.728111  	76.341778 
918.164989  	75.855072 
919.601867  	75.320555 
921.038745  	74.837370 
922.475623  	74.267604 
923.912501  	73.720196 
925.349379  	73.288913 
926.786257  	72.786294 
928.223134  	72.335470 
929.660012  	71.924063 
931.096890  	71.465800 
932.533768  	71.124472 
933.970646  	70.779490 
935.407524  	70.431369 
936.844402  	70.182803 
938.281280  	69.896658 
939.718158  	69.704899 
941.155036  	69.579390 
942.591914  	69.366419 
944.028792  	69.244843 
945.465670  	69.150676 
946.902547  	69.066968 
948.339425  	69.089043 
949.776303  	69.055004 
951.213181  	69.072116 
952.650059  	69.167132 
954.086937  	69.212902 
955.523815  	69.391126 
956.960693  	69.623484 
958.397571  	69.797317 
959.834449  	70.018200 
961.271327  	70.252215 
962.708205  	70.595397 
964.145082  	70.993527 
965.581960  	71.305877 
967.018838  	71.693251 
968.455716  	72.112668 
969.892594  	72.562344 
971.329472  	73.128677 
972.766350  	73.623328 
974.203228  	74.118771 
975.640106  	74.701797 
977.076984  	75.264308 
978.513862  	75.867002 
979.950740  	76.456496 
981.387617  	77.041899 
982.824495  	77.656363 
984.261373  	78.141351 
985.698251  	78.589197 
987.135129  	78.992997 
988.572007  	79.230334 
990.008885  	79.419964 
991.445763  	79.460016 
992.882641  	79.324953 
994.319519  	79.117335 
995.756397  	78.673474 
997.193275  	78.087207 
998.630152  	77.393667 
1000.067030  	76.443677 
1001.503908  	75.466877 
1002.940786  	74.383127 
1004.377664  	73.019955 
1005.814542  	71.584865 
1007.251420  	69.953098 
1008.688298  	68.172674 
1010.125176  	66.373731 
1011.562054  	64.288504 
1012.998932  	62.107519 
1014.435810  	59.870515 
1015.872687  	57.402003 
1017.309565  	54.969784 
1018.746443  	52.373655 
1020.183321  	49.655689 
1021.620199  	47.103227 
1023.057077  	44.345454 
1024.493955  	41.688386 
1025.930833  	39.246093 
1027.367711  	36.617643 
1028.804589  	34.292424 
1030.241467  	32.111454 
1031.678345  	29.887554 
1033.115222  	28.060798 
1034.552100  	26.197047 
1035.988978  	24.521659 
1037.425856  	23.253177 
1038.862734  	21.829208 
1040.299612  	20.727331 
1041.736490  	19.800251 
1043.173368  	18.746708 
1044.610246  	18.130690 
1046.047124  	17.448788 
1047.484002  	16.808181 
1048.920880  	16.565765 
1050.357757  	16.091903 
1051.794635  	15.837204 
1053.231513  	15.743653 
1054.668391  	15.433801 
1056.105269  	15.513070 
1057.542147  	15.483653 
1058.979025  	15.375049 
1060.415903  	15.631809 
1061.852781  	15.580397 
1063.289659  	15.675353 
1064.726537  	15.994471 
1066.163415  	16.030251 
1067.600292  	16.382114 
1069.037170  	16.667344 
1070.474048  	16.796421 
1071.910926  	17.268552 
1073.347804  	17.504582 
1074.784682  	17.842772 
1076.221560  	18.357085 
1077.658438  	18.550803 
1079.095316  	19.050551 
1080.532194  	19.543634 
1081.969072  	19.855424 
1083.405950  	20.507216 
1084.842827  	20.971997 
1086.279705  	21.498976 
1087.716583  	22.234420 
1089.153461  	22.710455 
1090.590339  	23.473730 
1092.027217  	24.270286 
1093.464095  	24.918360 
1094.900973  	25.924217 
1096.337851  	26.784991 
1097.774729  	27.733667 
1099.211607  	29.029568 
1100.648485  	30.157435 
1102.085362  	31.557881 
1103.522240  	33.129145 
1104.959118  	34.618630 
1106.395996  	36.455307 
1107.832874  	38.258593 
1109.269752  	40.051478 
1110.706630  	42.014982 
1112.143508  	43.723353 
1113.580386  	45.418575 
1115.017264  	47.044459 
1116.454142  	48.375063 
1117.891020  	49.713832 
1119.327897  	50.835949 
1120.764775  	51.765396 
1122.201653  	52.706628 
1123.638531  	53.390304 
1125.075409  	54.013756 
1126.512287  	54.623377 
1127.949165  	55.079771 
1129.386043  	55.576689 
1130.822921  	55.935771 
1132.259799  	56.264741 
1133.696677  	56.727212 
1135.133555  	56.997149 
1136.570432  	57.274876 
1138.007310  	57.600672 
1139.444188  	57.788832 
1140.881066  	58.107189 
1142.317944  	58.372964 
1143.754822  	58.539166 
1145.191700  	58.847797 
1146.628578  	59.058422 
1148.065456  	59.272924 
1149.502334  	59.544091 
1150.939212  	59.676313 
1152.376090  	59.911671 
1153.812967  	60.157572 
1155.249845  	60.338385 
1156.686723  	60.651330 
1158.123601  	60.872740 
1159.560479  	61.064661 
1160.997357  	61.339741 
1162.434235  	61.539759 
1163.871113  	61.823963 
1165.307991  	62.106760 
1166.744869  	62.311960 
1168.181747  	62.610239 
1169.618625  	62.846905 
1171.055502  	63.111285 
1172.492380  	63.468023 
1173.929258  	63.727161 
1175.366136  	64.059382 
1176.803014  	64.397273 
1178.239892  	64.646529 
1179.676770  	64.982605 
1181.113648  	65.259133 
1182.550526  	65.557906 
1183.987404  	65.954053 
1185.424282  	66.218237 
1186.861160  	66.538914 
1188.298038  	66.919780 
1189.734915  	67.199486 
1191.171793  	67.555329 
1192.608671  	67.902941 
1194.045549  	68.225098 
1195.482427  	68.601906 
1196.919305  	68.892900 
1198.356183  	69.228278 
1199.793061  	69.601238 
1201.229939  	69.886238 
1202.666817  	70.238510 
1204.103695  	70.583948 
1205.540573  	70.913944 
1206.977450  	71.313917 
1208.414328  	71.645201 
1209.851206  	72.005388 
1211.288084  	72.400461 
1212.724962  	72.734749 
1214.161840  	73.155613 
1215.598718  	73.564525 
1217.035596  	73.929581 
1218.472474  	74.359431 
1219.909352  	74.734045 
1221.346230  	75.147261 
1222.783108  	75.631379 
1224.219985  	76.065082 
1225.656863  	76.566773 
1227.093741  	77.067757 
1228.530619  	77.523841 
1229.967497  	78.058891 
1231.404375  	78.574924 
1232.841253  	79.107308 
1234.278131  	79.697191 
1235.715009  	80.259870 
1237.151887  	80.901369 
1238.588765  	81.568463 
1240.025643  	82.182199 
1241.462520  	82.849052 
1242.899398  	83.529316 
1244.336276  	84.240831 
1245.773154  	85.008844 
1247.210032  	85.729182 
1248.646910  	86.447643 
1250.083788  	87.184840 
1251.520666  	87.899681 
1252.957544  	88.615585 
1254.394422  	89.291251 
1255.831300  	89.934715 
1257.268178  	90.560472 
1258.705055  	91.108772 
1260.141933  	91.614341 
1261.578811  	92.076962 
1263.015689  	92.449541 
1264.452567  	92.800924 
1265.889445  	93.137571 
1267.326323  	93.415903 
1268.763201  	93.674312 
1270.200079  	93.909131 
1271.636957  	94.120927 
1273.073835  	94.336264 
1274.510713  	94.511622 
1275.947590  	94.659869 
1277.384468  	94.824398 
1278.821346  	94.971234 
1280.258224  	95.098643 
1281.695102  	95.226319 
1283.131980  	95.339736 
1284.568858  	95.435650 
1286.005736  	95.522150 
1287.442614  	95.617374 
1288.879492  	95.706028 
1290.316370  	95.771807 
1291.753248  	95.860010 
1293.190125  	95.948678 
1294.627003  	96.003473 
1296.063881  	96.078036 
1297.500759  	96.154484 
1298.937637  	96.211818 
1300.374515  	96.287304 
1301.811393  	96.303664 
1303.248271  	96.331189 
1304.685149  	96.377741 
1306.122027  	96.432657 
1307.558905  	96.458304 
1308.995783  	96.480830 
1310.432660  	96.510514 
1311.869538  	96.547700 
1313.306416  	96.577369 
1314.743294  	96.613358 
1316.180172  	96.651311 
1317.617050  	96.672764 
1319.053928  	96.698989 
1320.490806  	96.739903 
1321.927684  	96.758918 
1323.364562  	96.790369 
1324.801440  	96.832849 
1326.238318  	96.870040 
1327.675195  	96.898310 
1329.112073  	96.904649 
1330.548951  	96.908087 
1331.985829  	96.922762 
1333.422707  	96.943025 
1334.859585  	96.960966 
1336.296463  	96.975693 
1337.733341  	96.962192 
1339.170219  	96.961380 
1340.607097  	96.994549 
1342.043975  	97.035340 
1343.480853  	97.064927 
1344.917730  	97.068497 
1346.354608  	97.087505 
1347.791486  	97.115657 
1349.228364  	97.120371 
1350.665242  	97.116458 
1352.102120  	97.124827 
1353.538998  	97.132599 
1354.975876  	97.177768 
1356.412754  	97.222376 
1357.849632  	97.221396 
1359.286510  	97.215113 
1360.723388  	97.211455 
1362.160265  	97.185852 
1363.597143  	97.175594 
1365.034021  	97.219617 
1366.470899  	97.237907 
1367.907777  	97.255084 
1369.344655  	97.307066 
1370.781533  	97.345789 
1372.218411  	97.307567 
1373.655289  	97.268388 
1375.092167  	97.289217 
1376.529045  	97.315248 
1377.965923  	97.298684 
1379.402800  	97.304042 
1380.839678  	97.340924 
1382.276556  	97.373845 
1383.713434  	97.354282 
1385.150312  	97.336974 
1386.587190  	97.328133 
1388.024068  	97.344264 
1389.460946  	97.393242 
1390.897824  	97.421605 
1392.334702  	97.423516 
1393.771580  	97.419105 
1395.208458  	97.406950 
1396.645335  	97.388753 
1398.082213  	97.370955 
1399.519091  	97.350480 
1400.955969  	97.387489 
1402.392847  	97.393999 
1403.829725  	97.388679 
1405.266603  	97.404682 
1406.703481  	97.419472 
1408.140359  	97.422356 
1409.577237  	97.419715 
1411.014115  	97.415343 
1412.450993  	97.410199 
1413.887871  	97.442515 
1415.324748  	97.455853 
1416.761626  	97.417549 
1418.198504  	97.387776 
1419.635382  	97.423932 
1421.072260  	97.402699 
1422.509138  	97.321775 
1423.946016  	97.353470 
1425.382894  	97.445155 
1426.819772  	97.462894 
1428.256650  	97.475609 
1429.693528  	97.490052 
1431.130406  	97.512514 
1432.567283  	97.521055 
1434.004161  	97.480425 
1435.441039  	97.494449 
1436.877917  	97.539897 
1438.314795  	97.488545 
1439.751673  	97.415849 
1441.188551  	97.432980 
1442.625429  	97.500173 
1444.062307  	97.568288 
1445.499185  	97.576864 
1446.936063  	97.497825 
1448.372941  	97.380272 
1449.809818  	97.365006 
1451.246696  	97.476046 
1452.683574  	97.569660 
1454.120452  	97.511962 
1455.557330  	97.451741 
1456.994208  	97.427366 
1458.431086  	97.498753 
1459.867964  	97.503835 
1461.304842  	97.502863 
1462.741720  	97.488909 
1464.178598  	97.479129 
1465.615476  	97.567266 
1467.052353  	97.659131 
1468.489231  	97.641838 
1469.926109  	97.592258 
1471.362987  	97.615672 
1472.799865  	97.658814 
1474.236743  	97.603724 
1475.673621  	97.525272 
1477.110499  	97.557563 
1478.547377  	97.595974 
1479.984255  	97.575419 
1481.421133  	97.582684 
1482.858011  	97.627563 
1484.294888  	97.637351 
1485.731766  	97.621378 
1487.168644  	97.603661 
1488.605522  	97.562460 
1490.042400  	97.515002 
1491.479278  	97.557785 
1492.916156  	97.613269 
1494.353034  	97.640991 
1495.789912  	97.644567 
1497.226790  	97.593096 
1498.663668  	97.556220 
1500.100546  	97.563730 
1501.537423  	97.575622 
1502.974301  	97.591903 
1504.411179  	97.663191 
1505.848057  	97.714760 
1507.284935  	97.507573 
1508.721813  	97.448903 
1510.158691  	97.465952 
1511.595569  	97.518302 
1513.032447  	97.569335 
1514.469325  	97.587109 
1515.906203  	97.597084 
1517.343081  	97.579164 
1518.779958  	97.563653 
1520.216836  	97.592794 
1521.653714  	97.602054 
