##TITLE=No Description
##DATA TYPE=INFRARED SPECTRUM
##XUNITS=1/CM
##YUNITS=%T
399.452061  	37.429015 
400.888939  	37.005315 
402.325817  	38.341556 
403.762695  	38.367131 
405.199573  	35.965467 
406.636451  	35.993357 
408.073328  	35.946047 
409.510206  	36.345148 
410.947084  	37.016089 
412.383962  	35.518024 
413.820840  	35.648600 
415.257718  	35.955862 
416.694596  	35.082049 
418.131474  	35.944806 
419.568352  	35.450649 
421.005230  	35.204356 
422.442108  	36.015841 
423.878986  	35.687494 
425.315863  	36.085548 
426.752741  	35.582702 
428.189619  	34.385196 
429.626497  	35.200699 
431.063375  	35.114929 
432.500253  	34.719556 
433.937131  	35.295264 
435.374009  	34.539808 
436.810887  	34.611334 
438.247765  	35.189770 
439.684643  	34.663789 
441.121521  	35.126418 
442.558398  	35.164804 
443.995276  	34.790176 
445.432154  	35.035461 
446.869032  	34.205635 
448.305910  	34.377164 
449.742788  	35.012317 
451.179666  	34.594478 
452.616544  	35.556036 
454.053422  	36.057323 
455.490300  	35.620752 
456.927178  	36.413162 
458.364056  	36.449050 
459.800933  	36.581485 
461.237811  	37.598711 
462.674689  	37.851735 
464.111567  	38.780820 
465.548445  	39.703457 
466.985323  	39.971179 
468.422201  	41.349054 
469.859079  	42.505048 
471.295957  	43.324662 
472.732835  	44.995444 
474.169713  	46.420236 
475.606591  	47.943233 
477.043469  	49.360947 
478.480346  	50.491741 
479.917224  	52.428497 
481.354102  	54.142482 
482.790980  	55.609356 
484.227858  	57.783223 
485.664736  	59.597772 
487.101614  	61.134974 
488.538492  	62.726997 
489.975370  	64.044505 
491.412248  	65.668054 
492.849126  	67.171103 
494.286004  	68.306009 
495.722881  	69.716525 
497.159759  	70.710487 
498.596637  	71.215452 
500.033515  	71.999531 
501.470393  	72.751320 
502.907271  	73.346143 
504.344149  	73.814267 
505.781027  	74.015021 
507.217905  	74.234600 
508.654783  	74.588517 
510.091661  	74.974103 
511.528539  	75.170614 
512.965416  	75.007981 
514.402294  	74.960511 
515.839172  	75.079599 
517.276050  	74.974412 
518.712928  	74.814696 
520.149806  	74.799475 
521.586684  	74.887656 
523.023562  	74.869972 
524.460440  	74.642198 
525.897318  	74.526429 
527.334196  	74.473968 
528.771074  	74.314533 
530.207951  	74.149457 
531.644829  	73.732526 
533.081707  	73.246365 
534.518585  	73.081091 
535.955463  	72.903002 
537.392341  	72.607852 
538.829219  	72.372412 
540.266097  	72.134828 
541.702975  	72.049369 
543.139853  	72.078549 
544.576731  	72.008387 
546.013609  	71.916247 
547.450486  	71.791848 
548.887364  	71.600960 
550.324242  	71.441898 
551.761120  	71.341620 
553.197998  	71.264472 
554.634876  	71.205355 
556.071754  	71.298563 
557.508632  	71.431717 
558.945510  	71.302648 
560.382388  	71.204109 
561.819266  	71.347827 
563.256144  	71.410487 
564.693021  	71.419473 
566.129899  	71.476896 
567.566777  	71.551843 
569.003655  	71.832039 
570.440533  	72.186932 
571.877411  	72.390866 
573.314289  	72.480282 
574.751167  	72.439571 
576.188045  	72.489127 
577.624923  	72.743542 
579.061801  	72.903245 
580.498679  	73.133325 
581.935556  	73.505582 
583.372434  	73.601202 
584.809312  	73.677903 
586.246190  	74.083268 
587.683068  	74.461259 
589.119946  	74.659664 
590.556824  	74.820165 
591.993702  	74.982241 
593.430580  	75.219014 
594.867458  	75.478926 
596.304336  	75.701117 
597.741214  	75.941945 
599.178091  	76.154444 
600.614969  	76.357009 
602.051847  	76.632168 
603.488725  	76.888676 
604.925603  	77.097168 
606.362481  	77.305303 
607.799359  	77.524063 
609.236237  	77.766965 
610.673115  	78.012274 
612.109993  	78.216494 
613.546871  	78.394480 
614.983749  	78.575216 
616.420626  	78.739755 
617.857504  	78.884888 
619.294382  	79.017680 
620.731260  	79.150087 
622.168138  	79.307811 
623.605016  	79.460196 
625.041894  	79.578710 
626.478772  	79.694959 
627.915650  	79.799934 
629.352528  	79.849283 
630.789406  	79.894450 
632.226284  	79.934406 
633.663161  	79.926772 
635.100039  	79.891688 
636.536917  	79.843905 
637.973795  	79.787171 
639.410673  	79.695100 
640.847551  	79.586096 
642.284429  	79.432353 
643.721307  	79.285500 
645.158185  	79.127766 
646.595063  	78.879332 
648.031941  	78.616333 
649.468819  	78.431129 
650.905696  	78.314808 
652.342574  	78.204240 
653.779452  	78.091791 
655.216330  	77.988158 
656.653208  	77.870511 
658.090086  	77.742500 
659.526964  	77.578411 
660.963842  	77.346219 
662.400720  	77.009099 
663.837598  	76.634199 
665.274476  	76.196168 
666.711354  	75.762922 
668.148231  	75.205790 
669.585109  	74.673621 
671.021987  	74.220664 
672.458865  	73.723432 
673.895743  	73.261265 
675.332621  	72.808849 
676.769499  	72.272279 
678.206377  	71.778447 
679.643255  	71.334652 
681.080133  	70.867115 
682.517011  	70.383651 
683.953889  	69.887697 
685.390766  	69.418625 
686.827644  	68.958178 
688.264522  	68.676618 
689.701400  	68.644704 
691.138278  	68.700199 
692.575156  	68.993548 
694.012034  	69.444714 
695.448912  	69.891859 
696.885790  	70.508699 
698.322668  	71.192632 
699.759546  	71.867073 
701.196424  	72.533369 
702.633301  	73.085007 
704.070179  	73.594327 
705.507057  	74.089764 
706.943935  	74.553399 
708.380813  	75.025729 
709.817691  	75.452601 
711.254569  	75.656951 
712.691447  	75.855261 
714.128325  	76.042385 
715.565203  	76.208464 
717.002081  	76.344616 
718.438959  	76.346466 
719.875837  	76.364760 
721.312714  	76.380215 
722.749592  	76.372973 
724.186470  	76.360514 
725.623348  	76.179302 
727.060226  	75.952812 
728.497104  	75.861600 
729.933982  	75.611793 
731.370860  	75.324899 
732.807738  	75.054771 
734.244616  	74.767996 
735.681494  	74.501135 
737.118372  	74.217253 
738.555249  	73.987507 
739.992127  	73.848389 
741.429005  	73.599791 
742.865883  	73.340926 
744.302761  	73.222790 
745.739639  	73.097516 
747.176517  	72.948651 
748.613395  	72.829707 
750.050273  	72.731268 
751.487151  	72.643145 
752.924029  	72.525470 
754.360907  	72.458149 
755.797784  	72.401916 
757.234662  	72.214054 
758.671540  	72.034262 
760.108418  	71.932950 
761.545296  	71.800404 
762.982174  	71.614166 
764.419052  	71.357242 
765.855930  	71.088905 
767.292808  	70.831663 
768.729686  	70.524992 
770.166564  	70.229268 
771.603442  	69.897502 
773.040319  	69.484406 
774.477197  	69.061156 
775.914075  	68.598394 
777.350953  	68.225373 
778.787831  	67.966790 
780.224709  	67.619171 
781.661587  	67.301692 
783.098465  	67.022771 
784.535343  	66.676220 
785.972221  	66.442498 
787.409099  	66.232048 
788.845977  	65.984577 
790.282854  	65.861775 
791.719732  	65.711666 
793.156610  	65.543889 
794.593488  	65.478604 
796.030366  	65.377070 
797.467244  	65.290808 
798.904122  	65.270137 
800.341000  	65.271242 
801.777878  	65.379233 
803.214756  	65.524731 
804.651634  	65.646043 
806.088512  	65.851026 
807.525389  	66.179360 
808.962267  	66.580486 
810.399145  	67.000902 
811.836023  	67.520649 
813.272901  	68.217928 
814.709779  	69.018166 
816.146657  	69.857043 
817.583535  	70.751716 
819.020413  	71.798467 
820.457291  	72.949805 
821.894169  	74.089481 
823.331047  	75.296938 
824.767924  	76.523189 
826.204802  	77.741300 
827.641680  	79.030388 
829.078558  	80.215920 
830.515436  	81.307656 
831.952314  	82.392003 
833.389192  	83.270781 
834.826070  	83.966019 
836.262948  	84.582346 
837.699826  	85.054901 
839.136704  	85.409336 
840.573582  	85.699500 
842.010459  	85.948395 
843.447337  	86.117349 
844.884215  	86.148961 
846.321093  	86.112612 
847.757971  	86.033318 
849.194849  	85.916098 
850.631727  	85.803664 
852.068605  	85.615262 
853.505483  	85.369276 
854.942361  	85.153955 
856.379239  	84.874864 
857.816117  	84.535685 
859.252994  	84.239141 
860.689872  	83.963696 
862.126750  	83.711226 
863.563628  	83.508246 
865.000506  	83.364486 
866.437384  	83.247440 
867.874262  	83.078459 
869.311140  	82.926966 
870.748018  	82.811327 
872.184896  	82.656645 
873.621774  	82.523617 
875.058652  	82.341493 
876.495529  	82.085282 
877.932407  	81.920252 
879.369285  	81.754987 
880.806163  	81.541737 
882.243041  	81.370295 
883.679919  	81.148443 
885.116797  	80.924115 
886.553675  	80.726260 
887.990553  	80.486444 
889.427431  	80.310488 
890.864309  	80.097725 
892.301187  	79.789510 
893.738064  	79.545831 
895.174942  	79.269656 
896.611820  	78.996402 
898.048698  	78.800395 
899.485576  	78.488902 
900.922454  	78.154752 
902.359332  	77.853301 
903.796210  	77.459040 
905.233088  	77.070340 
906.669966  	76.648393 
908.106844  	76.204247 
909.543722  	75.842232 
910.980599  	75.402488 
912.417477  	74.943440 
913.854355  	74.525828 
915.291233  	74.027470 
916.728111  	73.601846 
918.164989  	73.258461 
919.601867  	72.958866 
921.038745  	72.804695 
922.475623  	72.643489 
923.912501  	72.529347 
925.349379  	72.558531 
926.786257  	72.561743 
928.223134  	72.605503 
929.660012  	72.685778 
931.096890  	72.751095 
932.533768  	72.872285 
933.970646  	72.878161 
935.407524  	72.783587 
936.844402  	72.674115 
938.281280  	72.427484 
939.718158  	72.169379 
941.155036  	71.899132 
942.591914  	71.528377 
944.028792  	71.210292 
945.465670  	70.873863 
946.902547  	70.521765 
948.339425  	70.228406 
949.776303  	69.857328 
951.213181  	69.517130 
952.650059  	69.219846 
954.086937  	68.885230 
955.523815  	68.639006 
956.960693  	68.357547 
958.397571  	68.064090 
959.834449  	67.868682 
961.271327  	67.618133 
962.708205  	67.431953 
964.145082  	67.249566 
965.581960  	66.925619 
967.018838  	66.674369 
968.455716  	66.334122 
969.892594  	65.829926 
971.329472  	65.326342 
972.766350  	64.684919 
974.203228  	64.040753 
975.640106  	63.361807 
977.076984  	62.483507 
978.513862  	61.730147 
979.950740  	60.969705 
981.387617  	60.109528 
982.824495  	59.389686 
984.261373  	58.495050 
985.698251  	57.484590 
987.135129  	56.469552 
988.572007  	55.140248 
990.008885  	53.734148 
991.445763  	52.164912 
992.882641  	50.291251 
994.319519  	48.526918 
995.756397  	46.680338 
997.193275  	44.846586 
998.630152  	43.321874 
1000.067030  	41.801367 
1001.503908  	40.556301 
1002.940786  	39.527380 
1004.377664  	38.435873 
1005.814542  	37.683971 
1007.251420  	36.918034 
1008.688298  	36.035196 
1010.125176  	35.340354 
1011.562054  	34.378562 
1012.998932  	33.396000 
1014.435810  	32.502875 
1015.872687  	31.343450 
1017.309565  	30.369157 
1018.746443  	29.377072 
1020.183321  	28.270805 
1021.620199  	27.504759 
1023.057077  	26.651039 
1024.493955  	25.909727 
1025.930833  	25.481135 
1027.367711  	24.905470 
1028.804589  	24.566790 
1030.241467  	24.317087 
1031.678345  	23.977192 
1033.115222  	23.984634 
1034.552100  	23.902512 
1035.988978  	23.854447 
1037.425856  	24.071356 
1038.862734  	24.126048 
1040.299612  	24.430988 
1041.736490  	24.810974 
1043.173368  	24.976635 
1044.610246  	25.408020 
1046.047124  	25.713058 
1047.484002  	25.992313 
1048.920880  	26.481619 
1050.357757  	26.670107 
1051.794635  	27.027020 
1053.231513  	27.466604 
1054.668391  	27.616246 
1056.105269  	28.063970 
1057.542147  	28.430611 
1058.979025  	28.674421 
1060.415903  	29.199375 
1061.852781  	29.493039 
1063.289659  	29.861450 
1064.726537  	30.377984 
1066.163415  	30.687634 
1067.600292  	31.236475 
1069.037170  	31.666416 
1070.474048  	31.947502 
1071.910926  	32.530994 
1073.347804  	32.906422 
1074.784682  	33.302957 
1076.221560  	33.823255 
1077.658438  	34.085790 
1079.095316  	34.560941 
1080.532194  	34.981881 
1081.969072  	35.201692 
1083.405950  	35.667301 
1084.842827  	35.959066 
1086.279705  	36.235399 
1087.716583  	36.645036 
1089.153461  	36.837842 
1090.590339  	37.220679 
1092.027217  	37.577764 
1093.464095  	37.765466 
1094.900973  	38.235141 
1096.337851  	38.600562 
1097.774729  	38.988796 
1099.211607  	39.587450 
1100.648485  	39.992979 
1102.085362  	40.548812 
1103.522240  	41.168125 
1104.959118  	41.652863 
1106.395996  	42.331920 
1107.832874  	42.887806 
1109.269752  	43.417590 
1110.706630  	44.072092 
1112.143508  	44.480361 
1113.580386  	44.981525 
1115.017264  	45.522509 
1116.454142  	45.867133 
1117.891020  	46.350245 
1119.327897  	46.718221 
1120.764775  	47.029715 
1122.201653  	47.518686 
1123.638531  	47.854984 
1125.075409  	48.269663 
1126.512287  	48.747123 
1127.949165  	49.073670 
1129.386043  	49.570376 
1130.822921  	50.027786 
1132.259799  	50.440678 
1133.696677  	51.034901 
1135.133555  	51.498307 
1136.570432  	51.996898 
1138.007310  	52.588781 
1139.444188  	53.075319 
1140.881066  	53.701410 
1142.317944  	54.294570 
1143.754822  	54.806178 
1145.191700  	55.452730 
1146.628578  	56.003228 
1148.065456  	56.575268 
1149.502334  	57.215034 
1150.939212  	57.714706 
1152.376090  	58.274009 
1153.812967  	58.810512 
1155.249845  	59.277353 
1156.686723  	59.824920 
1158.123601  	60.255680 
1159.560479  	60.671127 
1160.997357  	61.134380 
1162.434235  	61.517996 
1163.871113  	62.022452 
1165.307991  	62.528768 
1166.744869  	62.976168 
1168.181747  	63.541855 
1169.618625  	64.033732 
1171.055502  	64.531868 
1172.492380  	65.113262 
1173.929258  	65.590999 
1175.366136  	66.096311 
1176.803014  	66.551410 
1178.239892  	66.891255 
1179.676770  	67.273254 
1181.113648  	67.551961 
1182.550526  	67.854166 
1183.987404  	68.294835 
1185.424282  	68.684269 
1186.861160  	69.218897 
1188.298038  	69.905499 
1189.734915  	70.622879 
1191.171793  	71.519718 
1192.608671  	72.441747 
1194.045549  	73.371071 
1195.482427  	74.397662 
1196.919305  	75.341049 
1198.356183  	76.278339 
1199.793061  	77.208656 
1201.229939  	78.012115 
1202.666817  	78.844389 
1204.103695  	79.650755 
1205.540573  	80.352246 
1206.977450  	81.062012 
1208.414328  	81.736425 
1209.851206  	82.386831 
1211.288084  	83.023329 
1212.724962  	83.586578 
1214.161840  	84.150464 
1215.598718  	84.694333 
1217.035596  	85.207399 
1218.472474  	85.739724 
1219.909352  	86.185664 
1221.346230  	86.565896 
1222.783108  	86.954583 
1224.219985  	87.292821 
1225.656863  	87.610687 
1227.093741  	87.880977 
1228.530619  	88.041834 
1229.967497  	88.147811 
1231.404375  	88.158773 
1232.841253  	88.061368 
1234.278131  	87.907458 
1235.715009  	87.687679 
1237.151887  	87.506684 
1238.588765  	87.421479 
1240.025643  	87.428981 
1241.462520  	87.613397 
1242.899398  	87.902463 
1244.336276  	88.227153 
1245.773154  	88.613021 
1247.210032  	88.976573 
1248.646910  	89.264377 
1250.083788  	89.486019 
1251.520666  	89.652893 
1252.957544  	89.761113 
1254.394422  	89.731765 
1255.831300  	89.589016 
1257.268178  	89.429675 
1258.705055  	89.280431 
1260.141933  	89.271620 
1261.578811  	89.480366 
1263.015689  	89.863811 
1264.452567  	90.441436 
1265.889445  	91.142817 
1267.326323  	91.919178 
1268.763201  	92.758722 
1270.200079  	93.522240 
1271.636957  	94.178713 
1273.073835  	94.757607 
1274.510713  	95.187917 
1275.947590  	95.530284 
1277.384468  	95.849055 
1278.821346  	96.072849 
1280.258224  	96.244605 
1281.695102  	96.396033 
1283.131980  	96.489550 
1284.568858  	96.581204 
1286.005736  	96.649437 
1287.442614  	96.668106 
1288.879492  	96.699481 
1290.316370  	96.702635 
1291.753248  	96.658048 
1293.190125  	96.589696 
1294.627003  	96.472900 
1296.063881  	96.350388 
1297.500759  	96.233703 
1298.937637  	96.085914 
1300.374515  	95.925097 
1301.811393  	95.767072 
1303.248271  	95.641349 
1304.685149  	95.584834 
1306.122027  	95.552301 
1307.558905  	95.557487 
1308.995783  	95.631665 
1310.432660  	95.773995 
1311.869538  	96.000030 
1313.306416  	96.277963 
1314.743294  	96.564103 
1316.180172  	96.853096 
1317.617050  	97.082880 
1319.053928  	97.247543 
1320.490806  	97.397497 
1321.927684  	97.502783 
1323.364562  	97.572182 
1324.801440  	97.603805 
1326.238318  	97.629443 
1327.675195  	97.609303 
1329.112073  	97.578742 
1330.548951  	97.553873 
1331.985829  	97.509989 
1333.422707  	97.447648 
1334.859585  	97.279151 
1336.296463  	97.086622 
1337.733341  	96.876141 
1339.170219  	96.659206 
1340.607097  	96.425387 
1342.043975  	96.229757 
1343.480853  	96.045110 
1344.917730  	95.968810 
1346.354608  	96.092523 
1347.791486  	96.338641 
1349.228364  	96.607243 
1350.665242  	96.903682 
1352.102120  	97.201324 
1353.538998  	97.394593 
1354.975876  	97.570351 
1356.412754  	97.726408 
1357.849632  	97.864967 
1359.286510  	97.901409 
1360.723388  	97.899452 
1362.160265  	97.899598 
1363.597143  	97.908654 
1365.034021  	97.902148 
1366.470899  	97.904423 
1367.907777  	97.887588 
1369.344655  	97.897755 
1370.781533  	97.937071 
1372.218411  	97.960962 
1373.655289  	97.949933 
1375.092167  	97.952961 
1376.529045  	97.963590 
1377.965923  	97.964242 
1379.402800  	97.947973 
1380.839678  	97.942119 
1382.276556  	97.889437 
1383.713434  	97.796546 
1385.150312  	97.720068 
1386.587190  	97.638209 
1388.024068  	97.554272 
1389.460946  	97.490461 
1390.897824  	97.383108 
1392.334702  	97.233806 
1393.771580  	97.122888 
1395.208458  	96.982236 
1396.645335  	96.857318 
1398.082213  	96.718975 
1399.519091  	96.509580 
1400.955969  	96.330383 
1402.392847  	96.150889 
1403.829725  	96.019511 
1405.266603  	95.943107 
1406.703481  	95.902958 
1408.140359  	95.884181 
1409.577237  	95.953195 
1411.014115  	96.068058 
1412.450993  	96.243084 
1413.887871  	96.376534 
1415.324748  	96.448693 
1416.761626  	96.517182 
1418.198504  	96.555124 
1419.635382  	96.586301 
1421.072260  	96.586033 
1422.509138  	96.524880 
1423.946016  	96.459482 
1425.382894  	96.414328 
1426.819772  	96.378894 
1428.256650  	96.319969 
1429.693528  	96.305060 
1431.130406  	96.368892 
1432.567283  	96.397557 
1434.004161  	96.372481 
1435.441039  	96.379559 
1436.877917  	96.331357 
1438.314795  	96.166220 
1439.751673  	95.986824 
1441.188551  	95.848389 
1442.625429  	95.814115 
1444.062307  	95.883496 
1445.499185  	96.044033 
1446.936063  	96.193639 
1448.372941  	96.304003 
1449.809818  	96.376503 
1451.246696  	96.369169 
1452.683574  	96.301264 
1454.120452  	96.295550 
1455.557330  	96.387576 
1456.994208  	96.649759 
1458.431086  	97.021200 
1459.867964  	97.226015 
1461.304842  	97.421409 
1462.741720  	97.570922 
1464.178598  	97.723440 
1465.615476  	97.902434 
1467.052353  	97.994925 
1468.489231  	98.037263 
1469.926109  	98.058178 
1471.362987  	98.069902 
1472.799865  	98.122641 
1474.236743  	98.201751 
1475.673621  	98.223263 
1477.110499  	98.232223 
1478.547377  	98.239697 
1479.984255  	98.231270 
1481.421133  	98.234396 
1482.858011  	98.274639 
1484.294888  	98.313945 
1485.731766  	98.327199 
1487.168644  	98.312477 
1488.605522  	98.292296 
1490.042400  	98.318353 
1491.479278  	98.392205 
1492.916156  	98.403240 
1494.353034  	98.413871 
1495.789912  	98.429845 
1497.226790  	98.426582 
1498.663668  	98.434739 
1500.100546  	98.448078 
1501.537423  	98.444328 
1502.974301  	98.443803 
1504.411179  	98.464874 
1505.848057  	98.454286 
1507.284935  	98.357860 
1508.721813  	98.431036 
1510.158691  	98.435774 
1511.595569  	98.431271 
1513.032447  	98.442068 
1514.469325  	98.442885 
1515.906203  	98.415001 
1517.343081  	98.434063 
1518.779958  	98.457310 
1520.216836  	98.451554 
1521.653714  	98.422620 
