##TITLE=No Description
##DATA TYPE=INFRARED SPECTRUM
##XUNITS=1/CM
##YUNITS=%T
399.460154  	87.673667 
400.897061  	85.500690 
402.333968  	84.642620 
403.770875  	83.916965 
405.207782  	85.057579 
406.644689  	87.096045 
408.081596  	85.479140 
409.518503  	83.643689 
410.955410  	82.863176 
412.392317  	82.104129 
413.829224  	82.984829 
415.266131  	82.595021 
416.703038  	80.606773 
418.139945  	80.508763 
419.576852  	80.346647 
421.013759  	79.163790 
422.450666  	78.526509 
423.887574  	77.699768 
425.324481  	77.381349 
426.761388  	77.254782 
428.198295  	77.571435 
429.635202  	78.273280 
431.072109  	78.581295 
432.509016  	79.891316 
433.945923  	80.846288 
435.382830  	80.210232 
436.819737  	80.613614 
438.256644  	81.315546 
439.693551  	81.309922 
441.130458  	81.677834 
442.567365  	81.525454 
444.004272  	81.441127 
445.441179  	82.042432 
446.878086  	82.560216 
448.314993  	83.411468 
449.751900  	83.197737 
451.188807  	82.428223 
452.625714  	83.138158 
454.062621  	83.612263 
455.499528  	83.295952 
456.936435  	83.114478 
458.373342  	82.422291 
459.810249  	82.525692 
461.247156  	82.937137 
462.684063  	82.736812 
464.120970  	82.826787 
465.557877  	82.778572 
466.994784  	82.643255 
468.431691  	82.693592 
469.868598  	81.935219 
471.305505  	81.462443 
472.742413  	81.950846 
474.179320  	82.138002 
475.616227  	82.072616 
477.053134  	81.358736 
478.490041  	80.090798 
479.926948  	79.414597 
481.363855  	78.852744 
482.800762  	78.168761 
484.237669  	77.502074 
485.674576  	76.765994 
487.111483  	76.601786 
488.548390  	76.913650 
489.985297  	77.407077 
491.422204  	77.978197 
492.859111  	78.551437 
494.296018  	79.485385 
495.732925  	80.208376 
497.169832  	80.414624 
498.606739  	80.882331 
500.043646  	81.227658 
501.480553  	81.155044 
502.917460  	81.398645 
504.354367  	81.847949 
505.791274  	82.142447 
507.228181  	82.208416 
508.665088  	82.006624 
510.101995  	81.839368 
511.538902  	81.878802 
512.975809  	82.118963 
514.412716  	82.203710 
515.849623  	81.882031 
517.286530  	81.677660 
518.723437  	81.790635 
520.160344  	81.888980 
521.597251  	81.923777 
523.034159  	81.917949 
524.471066  	81.933086 
525.907973  	81.711034 
527.344880  	81.402324 
528.781787  	81.556421 
530.218694  	81.570762 
531.655601  	81.330232 
533.092508  	81.393713 
534.529415  	81.211736 
535.966322  	80.943843 
537.403229  	81.041110 
538.840136  	80.795952 
540.277043  	80.575157 
541.713950  	80.808347 
543.150857  	80.804979 
544.587764  	80.696925 
546.024671  	80.629859 
547.461578  	80.472676 
548.898485  	80.496498 
550.335392  	80.409782 
551.772299  	80.141922 
553.209206  	80.053550 
554.646113  	80.021667 
556.083020  	80.032252 
557.519927  	80.026768 
558.956834  	79.932736 
560.393741  	79.918967 
561.830648  	79.784632 
563.267555  	79.592193 
564.704462  	79.596740 
566.141369  	79.550431 
567.578276  	79.430562 
569.015183  	79.285504 
570.452090  	79.078035 
571.888997  	79.054902 
573.325905  	79.107266 
574.762812  	78.995438 
576.199719  	78.824629 
577.636626  	78.712613 
579.073533  	78.667772 
580.510440  	78.581787 
581.947347  	78.513616 
583.384254  	78.573054 
584.821161  	78.498512 
586.258068  	78.323697 
587.694975  	78.258575 
589.131882  	78.156875 
590.568789  	78.074814 
592.005696  	78.017713 
593.442603  	77.873284 
594.879510  	77.839865 
596.316417  	77.903199 
597.753324  	77.924685 
599.190231  	77.841873 
600.627138  	77.597468 
602.064045  	77.486438 
603.500952  	77.553214 
604.937859  	77.511472 
606.374766  	77.456404 
607.811673  	77.413254 
609.248580  	77.354164 
610.685487  	77.324046 
612.122394  	77.289510 
613.559301  	77.277097 
614.996208  	77.293393 
616.433115  	77.244284 
617.870022  	77.260786 
619.306929  	77.342192 
620.743836  	77.302825 
622.180744  	77.251124 
623.617651  	77.269474 
625.054558  	77.266742 
626.491465  	77.217101 
627.928372  	77.138655 
629.365279  	77.123083 
630.802186  	77.138592 
632.239093  	77.092339 
633.676000  	77.109378 
635.112907  	77.176092 
636.549814  	77.199714 
637.986721  	77.223066 
639.423628  	77.224562 
640.860535  	77.222417 
642.297442  	77.209703 
643.734349  	77.179615 
645.171256  	77.268963 
646.608163  	77.365199 
648.045070  	77.389999 
649.481977  	77.449250 
650.918884  	77.489208 
652.355791  	77.565856 
653.792698  	77.688311 
655.229605  	77.733465 
656.666512  	77.801026 
658.103419  	77.880799 
659.540326  	77.912505 
660.977233  	78.009235 
662.414140  	78.124203 
663.851047  	78.209155 
665.287954  	78.297575 
666.724861  	78.385343 
668.161768  	78.447257 
669.598675  	78.525941 
671.035582  	78.557032 
672.472490  	78.661238 
673.909397  	78.738276 
675.346304  	78.813738 
676.783211  	78.982032 
678.220118  	79.095268 
679.657025  	79.197060 
681.093932  	79.340933 
682.530839  	79.429086 
683.967746  	79.547152 
685.404653  	79.692945 
686.841560  	79.790360 
688.278467  	79.880566 
689.715374  	79.984811 
691.152281  	80.097782 
692.589188  	80.213194 
694.026095  	80.297601 
695.463002  	80.378338 
696.899909  	80.487229 
698.336816  	80.624108 
699.773723  	80.844437 
701.210630  	81.010319 
702.647537  	81.137083 
704.084444  	81.305826 
705.521351  	81.458850 
706.958258  	81.603662 
708.395165  	81.730653 
709.832072  	81.836499 
711.268979  	81.978405 
712.705886  	82.098615 
714.142793  	82.209887 
715.579700  	82.354225 
717.016607  	82.496934 
718.453514  	82.642983 
719.890421  	82.786048 
721.327328  	82.895568 
722.764236  	83.056158 
724.201143  	83.212314 
725.638050  	83.323756 
727.074957  	83.476871 
728.511864  	83.600950 
729.948771  	83.688211 
731.385678  	83.830250 
732.822585  	83.989890 
734.259492  	84.173657 
735.696399  	84.365380 
737.133306  	84.536316 
738.570213  	84.686898 
740.007120  	84.789299 
741.444027  	84.840125 
742.880934  	84.969890 
744.317841  	85.199385 
745.754748  	85.464267 
747.191655  	85.651909 
748.628562  	85.727880 
750.065469  	85.852320 
751.502376  	86.014376 
752.939283  	86.104990 
754.376190  	86.205105 
755.813097  	86.304685 
757.250004  	86.382635 
758.686911  	86.560863 
760.123818  	86.764151 
761.560725  	86.881801 
762.997632  	87.031381 
764.434539  	87.223792 
765.871446  	87.356498 
767.308353  	87.474997 
768.745260  	87.604642 
770.182167  	87.715521 
771.619075  	87.859231 
773.055982  	88.003212 
774.492889  	88.100600 
775.929796  	88.235417 
777.366703  	88.372995 
778.803610  	88.458426 
780.240517  	88.590895 
781.677424  	88.741615 
783.114331  	88.836564 
784.551238  	88.952884 
785.988145  	89.087436 
787.425052  	89.167015 
788.861959  	89.218619 
790.298866  	89.310075 
791.735773  	89.472252 
793.172680  	89.643338 
794.609587  	89.715930 
796.046494  	89.712784 
797.483401  	89.744184 
798.920308  	89.769993 
800.357215  	89.705068 
801.794122  	89.634905 
803.231029  	89.497296 
804.667936  	89.087964 
806.104843  	88.434368 
807.541750  	87.443618 
808.978657  	85.810996 
810.415564  	83.154280 
811.852471  	78.871637 
813.289378  	73.236293 
814.726285  	67.983233 
816.163192  	65.221098 
817.600099  	66.183901 
819.037006  	70.581756 
820.473913  	76.713833 
821.910821  	82.200972 
823.347728  	85.887701 
824.784635  	88.004645 
826.221542  	89.250167 
827.658449  	90.103423 
829.095356  	90.711650 
830.532263  	91.166811 
831.969170  	91.485017 
833.406077  	91.730009 
834.842984  	92.015117 
836.279891  	92.253858 
837.716798  	92.394200 
839.153705  	92.525620 
840.590612  	92.662221 
842.027519  	92.779866 
843.464426  	92.889497 
844.901333  	93.041770 
846.338240  	93.223380 
847.775147  	93.344102 
849.212054  	93.441414 
850.648961  	93.559839 
852.085868  	93.629450 
853.522775  	93.672110 
854.959682  	93.765043 
856.396589  	93.891852 
857.833496  	93.972991 
859.270403  	94.009002 
860.707310  	94.100511 
862.144217  	94.224971 
863.581124  	94.302441 
865.018031  	94.363175 
866.454938  	94.408824 
867.891845  	94.443630 
869.328752  	94.501190 
870.765660  	94.557990 
872.202567  	94.612509 
873.639474  	94.650347 
875.076381  	94.678244 
876.513288  	94.743952 
877.950195  	94.784328 
879.387102  	94.796651 
880.824009  	94.839194 
882.260916  	94.854987 
883.697823  	94.886378 
885.134730  	94.972374 
886.571637  	95.003592 
888.008544  	94.993615 
889.445451  	95.001080 
890.882358  	95.008206 
892.319265  	95.007562 
893.756172  	94.978928 
895.193079  	94.961339 
896.629986  	94.978281 
898.066893  	94.965854 
899.503800  	94.933347 
900.940707  	94.888681 
902.377614  	94.819266 
903.814521  	94.760795 
905.251428  	94.686288 
906.688335  	94.613840 
908.125242  	94.590073 
909.562149  	94.515353 
910.999056  	94.351565 
912.435963  	94.142442 
913.872870  	93.859983 
915.309777  	93.558598 
916.746684  	93.302075 
918.183591  	92.994988 
919.620498  	92.614019 
921.057406  	92.266926 
922.494313  	91.971619 
923.931220  	91.673461 
925.368127  	91.302616 
926.805034  	90.802406 
928.241941  	90.152677 
929.678848  	89.248730 
931.115755  	88.049637 
932.552662  	86.665716 
933.989569  	85.067148 
935.426476  	83.278196 
936.863383  	81.370877 
938.300290  	79.047391 
939.737197  	76.004631 
941.174104  	71.929939 
942.611011  	66.571839 
944.047918  	60.421438 
945.484825  	54.057550 
946.921732  	48.190261 
948.358639  	43.861474 
949.795546  	41.366510 
951.232453  	41.311856 
952.669360  	44.190055 
954.106267  	49.325002 
955.543174  	56.046133 
956.980081  	63.551859 
958.416988  	70.921731 
959.853895  	77.418590 
961.290802  	82.523647 
962.727709  	86.140021 
964.164616  	88.599442 
965.601523  	90.322402 
967.038430  	91.522862 
968.475337  	92.422894 
969.912244  	93.108008 
971.349152  	93.567382 
972.786059  	93.963138 
974.222966  	94.305379 
975.659873  	94.559127 
977.096780  	94.795701 
978.533687  	94.955232 
979.970594  	95.105721 
981.407501  	95.328259 
982.844408  	95.486542 
984.281315  	95.596217 
985.718222  	95.707627 
987.155129  	95.780972 
988.592036  	95.877899 
990.028943  	96.000144 
991.465850  	96.112208 
992.902757  	96.191361 
994.339664  	96.202386 
995.776571  	96.232493 
997.213478  	96.293007 
998.650385  	96.323981 
1000.087292  	96.365207 
1001.524199  	96.386664 
1002.961106  	96.399060 
1004.398013  	96.437175 
1005.834920  	96.423598 
1007.271827  	96.419662 
1008.708734  	96.463963 
1010.145641  	96.478222 
1011.582548  	96.510875 
1013.019455  	96.528538 
1014.456362  	96.488867 
1015.893269  	96.487264 
1017.330176  	96.480606 
1018.767083  	96.453496 
1020.203991  	96.478242 
1021.640898  	96.497566 
1023.077805  	96.500425 
1024.514712  	96.503083 
1025.951619  	96.476732 
1027.388526  	96.460166 
1028.825433  	96.442253 
1030.262340  	96.407975 
1031.699247  	96.396429 
1033.136154  	96.375759 
1034.573061  	96.344659 
1036.009968  	96.335356 
1037.446875  	96.323706 
1038.883782  	96.302399 
1040.320689  	96.276670 
1041.757596  	96.254232 
1043.194503  	96.216048 
1044.631410  	96.127946 
1046.068317  	96.053812 
1047.505224  	96.026265 
1048.942131  	95.983148 
1050.379038  	95.916371 
1051.815945  	95.821383 
1053.252852  	95.698790 
1054.689759  	95.605540 
1056.126666  	95.532241 
1057.563573  	95.430833 
1059.000480  	95.324034 
1060.437387  	95.226439 
1061.874294  	95.092322 
1063.311201  	94.916594 
1064.748108  	94.758803 
1066.185015  	94.616951 
1067.621922  	94.431607 
1069.058829  	94.186107 
1070.495737  	93.901480 
1071.932644  	93.624174 
1073.369551  	93.362900 
1074.806458  	93.049916 
1076.243365  	92.665709 
1077.680272  	92.252042 
1079.117179  	91.779767 
1080.554086  	91.206249 
1081.990993  	90.582491 
1083.427900  	89.889362 
1084.864807  	89.025380 
1086.301714  	88.040303 
1087.738621  	86.966503 
1089.175528  	85.748582 
1090.612435  	84.424986 
1092.049342  	82.938288 
1093.486249  	81.299117 
1094.923156  	79.620989 
1096.360063  	77.833014 
1097.796970  	76.046034 
1099.233877  	74.295679 
1100.670784  	72.517756 
1102.107691  	71.054619 
1103.544598  	69.912745 
1104.981505  	69.050774 
1106.418412  	68.689670 
1107.855319  	68.587585 
1109.292226  	68.748002 
1110.729133  	69.234283 
1112.166040  	69.783322 
1113.602947  	70.469721 
1115.039854  	71.165469 
1116.476761  	71.639664 
1117.913668  	71.844409 
1119.350575  	71.432495 
1120.787483  	70.282670 
1122.224390  	68.469445 
1123.661297  	66.060341 
1125.098204  	63.703640 
1126.535111  	61.909756 
1127.972018  	60.997902 
1129.408925  	61.389400 
1130.845832  	62.770078 
1132.282739  	64.966909 
1133.719646  	67.839396 
1135.156553  	70.828128 
1136.593460  	73.731619 
1138.030367  	76.228572 
1139.467274  	78.046423 
1140.904181  	79.346314 
1142.341088  	80.157266 
1143.777995  	80.527333 
1145.214902  	80.575087 
1146.651809  	80.243819 
1148.088716  	79.631227 
1149.525623  	78.783591 
1150.962530  	77.607838 
1152.399437  	76.205142 
1153.836344  	74.552950 
1155.273251  	72.725111 
1156.710158  	70.971657 
1158.147065  	69.366725 
1159.583972  	68.309708 
1161.020879  	68.052281 
1162.457786  	68.599984 
1163.894693  	70.274490 
1165.331600  	72.901731 
1166.768507  	76.132785 
1168.205414  	79.709593 
1169.642322  	83.103090 
1171.079229  	86.019582 
1172.516136  	88.385972 
1173.953043  	90.182003 
1175.389950  	91.517840 
1176.826857  	92.500612 
1178.263764  	93.197412 
1179.700671  	93.730660 
1181.137578  	94.133272 
1182.574485  	94.370761 
1184.011392  	94.527531 
1185.448299  	94.641540 
1186.885206  	94.725544 
1188.322113  	94.846593 
1189.759020  	94.963893 
1191.195927  	95.080905 
1192.632834  	95.247561 
1194.069741  	95.405572 
1195.506648  	95.545802 
1196.943555  	95.657074 
1198.380462  	95.709465 
1199.817369  	95.766200 
1201.254276  	95.809683 
1202.691183  	95.824335 
1204.128090  	95.857943 
1205.564997  	95.867888 
1207.001904  	95.878791 
1208.438811  	95.913624 
1209.875718  	95.905013 
1211.312625  	95.898006 
1212.749532  	95.912245 
1214.186439  	95.907597 
1215.623346  	95.905839 
1217.060253  	95.894952 
1218.497160  	95.888358 
1219.934068  	95.880707 
1221.370975  	95.837716 
1222.807882  	95.827092 
1224.244789  	95.824238 
1225.681696  	95.786400 
1227.118603  	95.787458 
1228.555510  	95.780699 
1229.992417  	95.741045 
1231.429324  	95.722933 
1232.866231  	95.681812 
1234.303138  	95.634250 
1235.740045  	95.600720 
1237.176952  	95.541068 
1238.613859  	95.487833 
1240.050766  	95.430881 
1241.487673  	95.354819 
1242.924580  	95.281638 
1244.361487  	95.189728 
1245.798394  	95.105332 
1247.235301  	95.026488 
1248.672208  	94.927171 
1250.109115  	94.841526 
1251.546022  	94.747417 
1252.982929  	94.649528 
1254.419836  	94.553347 
1255.856743  	94.410979 
1257.293650  	94.293696 
1258.730557  	94.204686 
1260.167464  	94.064619 
1261.604371  	93.926718 
1263.041278  	93.783842 
1264.478185  	93.601177 
1265.915092  	93.409497 
1267.351999  	93.180643 
1268.788907  	92.926815 
1270.225814  	92.653779 
1271.662721  	92.347585 
1273.099628  	92.056943 
1274.536535  	91.730457 
1275.973442  	91.331607 
1277.410349  	90.910440 
1278.847256  	90.448291 
1280.284163  	89.947680 
1281.721070  	89.413189 
1283.157977  	88.821802 
1284.594884  	88.197534 
1286.031791  	87.550250 
1287.468698  	86.886419 
1288.905605  	86.212743 
1290.342512  	85.556069 
1291.779419  	84.931577 
1293.216326  	84.308778 
1294.653233  	83.727943 
1296.090140  	83.171969 
1297.527047  	82.618208 
1298.963954  	82.147910 
1300.400861  	81.732252 
1301.837768  	81.399584 
1303.274675  	81.182419 
1304.711582  	81.019239 
1306.148489  	80.996886 
1307.585396  	81.076939 
1309.022303  	81.177372 
1310.459210  	81.386796 
1311.896117  	81.650887 
1313.333024  	81.994385 
1314.769931  	82.475573 
1316.206838  	82.969661 
1317.643745  	83.543119 
1319.080653  	84.259225 
1320.517560  	85.006759 
1321.954467  	85.759795 
1323.391374  	86.511528 
1324.828281  	87.222451 
1326.265188  	87.862494 
1327.702095  	88.015550 
1329.139002  	88.391343 
1330.575909  	88.753209 
1332.012816  	88.821304 
1333.449723  	88.907556 
1334.886630  	88.533057 
1336.323537  	87.901207 
1337.760444  	87.084139 
1339.197351  	86.202115 
1340.634258  	85.566823 
1342.071165  	85.612559 
1343.508072  	86.198590 
1344.944979  	87.168293 
1346.381886  	88.262781 
1347.818793  	88.504573 
1349.255700  	88.895879 
1350.692607  	89.432885 
1352.129514  	90.469773 
1353.566421  	89.797420 
1355.003328  	89.529173 
1356.440235  	89.815808 
1357.877142  	89.285207 
1359.314049  	87.985032 
1360.750956  	86.488344 
1362.187863  	84.500819 
1363.624770  	82.264886 
1365.061677  	80.329427 
1366.498584  	78.796247 
1367.935491  	78.252033 
1369.372399  	78.254572 
1370.809306  	78.697527 
1372.246213  	78.968312 
1373.683120  	78.552684 
1375.120027  	77.006599 
1376.556934  	75.179269 
1377.993841  	73.330287 
1379.430748  	72.632543 
1380.867655  	73.733080 
1382.304562  	75.737644 
1383.741469  	78.254044 
1385.178376  	80.934127 
1386.615283  	83.194583 
1388.052190  	85.355635 
1389.489097  	86.564156 
1390.926004  	87.926184 
1392.362911  	88.141180 
1393.799818  	88.173009 
1395.236725  	88.170706 
1396.673632  	88.003995 
1398.110539  	87.858312 
1399.547446  	87.682982 
1400.984353  	87.457003 
1402.421260  	87.285710 
1403.858167  	87.070086 
1405.295074  	86.760719 
1406.731981  	86.497430 
1408.168888  	86.404522 
1409.605795  	86.456012 
1411.042702  	86.620345 
1412.479609  	86.841721 
1413.916516  	87.109330 
1415.353423  	87.425513 
1416.790330  	87.749889 
1418.227238  	88.043943 
1419.664145  	88.338296 
1421.101052  	88.688474 
1422.537959  	88.957028 
1423.974866  	89.185741 
1425.411773  	89.452532 
1426.848680  	89.721355 
1428.285587  	89.986235 
1429.722494  	90.261921 
1431.159401  	90.521596 
1432.596308  	90.794289 
1434.033215  	91.031581 
1435.470122  	91.241348 
1436.907029  	91.457978 
1438.343936  	91.635862 
1439.780843  	91.847850 
1441.217750  	91.987496 
1442.654657  	92.113388 
1444.091564  	92.241841 
1445.528471  	92.239916 
1446.965378  	92.042147 
1448.402285  	91.615763 
1449.839192  	91.037221 
1451.276099  	90.514857 
1452.713006  	89.904792 
1454.149913  	89.345289 
1455.586820  	89.010533 
1457.023727  	88.560695 
1458.460634  	87.918746 
1459.897541  	87.241218 
1461.334448  	86.621102 
1462.771355  	86.092167 
1464.208262  	85.501887 
1465.645169  	84.939369 
1467.082076  	84.570620 
1468.518984  	84.799525 
1469.955891  	85.676829 
1471.392798  	86.662779 
1472.829705  	88.311185 
1474.266612  	89.670175 
1475.703519  	90.307116 
1477.140426  	91.189390 
1478.577333  	91.798019 
1480.014240  	92.334557 
1481.451147  	93.004535 
1482.888054  	93.459796 
1484.324961  	93.932646 
1485.761868  	94.190184 
1487.198775  	94.329990 
1488.635682  	94.550903 
1490.072589  	94.706794 
1491.509496  	94.886943 
1492.946403  	95.121981 
1494.383310  	95.278014 
1495.820217  	95.400168 
1497.257124  	95.544952 
1498.694031  	95.702366 
1500.130938  	95.905434 
1501.567845  	96.069142 
1503.004752  	96.231183 
1504.441659  	96.374467 
1505.878566  	96.494402 
1507.315473  	96.376888 
1508.752380  	96.297259 
1510.189287  	96.340762 
1511.626194  	96.425660 
1513.063101  	96.525266 
1514.500008  	96.685993 
1515.936915  	96.863479 
1517.373822  	96.896761 
1518.810730  	96.948267 
1520.247637  	97.024926 
1521.684544  	96.923978 
