##TITLE=No Description
##DATA TYPE=INFRARED SPECTRUM
##XUNITS=1/CM
##YUNITS=%T
399.452061  	71.114605 
400.888939  	72.072983 
402.325817  	71.968278 
403.762695  	71.902284 
405.199573  	73.041492 
406.636451  	72.463120 
408.073328  	71.721718 
409.510206  	71.055998 
410.947084  	68.513787 
412.383962  	66.948857 
413.820840  	66.151526 
415.257718  	65.050259 
416.694596  	64.600519 
418.131474  	64.546389 
419.568352  	64.947673 
421.005230  	64.437690 
422.442108  	63.292205 
423.878986  	63.455116 
425.315863  	63.799734 
426.752741  	63.962412 
428.189619  	65.079174 
429.626497  	65.852291 
431.063375  	66.390529 
432.500253  	67.392791 
433.937131  	68.205872 
435.374009  	69.059356 
436.810887  	69.288566 
438.247765  	69.178081 
439.684643  	69.823359 
441.121521  	70.294967 
442.558398  	70.782713 
443.995276  	70.948259 
445.432154  	70.210307 
446.869032  	70.225339 
448.305910  	70.549296 
449.742788  	70.582138 
451.179666  	71.082691 
452.616544  	70.962535 
454.053422  	70.662397 
455.490300  	71.201919 
456.927178  	71.403203 
458.364056  	71.191667 
459.800933  	70.926418 
461.237811  	70.757282 
462.674689  	71.000286 
464.111567  	70.700728 
465.548445  	70.055332 
466.985323  	69.087028 
468.422201  	67.817344 
469.859079  	68.566228 
471.295957  	70.491296 
472.732835  	70.633253 
474.169713  	70.043128 
475.606591  	69.682848 
477.043469  	69.173847 
478.480346  	68.887877 
479.917224  	67.865034 
481.354102  	66.253667 
482.790980  	65.306059 
484.227858  	64.394270 
485.664736  	63.591284 
487.101614  	63.787096 
488.538492  	64.522669 
489.975370  	65.511128 
491.412248  	66.418820 
492.849126  	67.125191 
494.286004  	68.004767 
495.722881  	68.784898 
497.159759  	69.388837 
498.596637  	70.031095 
500.033515  	70.539254 
501.470393  	70.743421 
502.907271  	70.732014 
504.344149  	70.874221 
505.781027  	71.165754 
507.217905  	71.356499 
508.654783  	71.530767 
510.091661  	71.590541 
511.528539  	71.476850 
512.965416  	71.557308 
514.402294  	71.797465 
515.839172  	71.873743 
517.276050  	71.783938 
518.712928  	71.659887 
520.149806  	71.600574 
521.586684  	71.635301 
523.023562  	71.724905 
524.460440  	71.751096 
525.897318  	71.672366 
527.334196  	71.625317 
528.771074  	71.629366 
530.207951  	71.628211 
531.644829  	71.589105 
533.081707  	71.529245 
534.518585  	71.599484 
535.955463  	71.753734 
537.392341  	71.795377 
538.829219  	71.725232 
540.266097  	71.607884 
541.702975  	71.595682 
543.139853  	71.650898 
544.576731  	71.548313 
546.013609  	71.431461 
547.450486  	71.353851 
548.887364  	71.276115 
550.324242  	71.328447 
551.761120  	71.237053 
553.197998  	71.041236 
554.634876  	71.088075 
556.071754  	70.949667 
557.508632  	70.535727 
558.945510  	70.360943 
560.382388  	70.344080 
561.819266  	70.273828 
563.256144  	70.151303 
564.693021  	69.987720 
566.129899  	69.871959 
567.566777  	69.725958 
569.003655  	69.594276 
570.440533  	69.584064 
571.877411  	69.470828 
573.314289  	69.255715 
574.751167  	69.112662 
576.188045  	69.025010 
577.624923  	68.961459 
579.061801  	68.830080 
580.498679  	68.681689 
581.935556  	68.659978 
583.372434  	68.650828 
584.809312  	68.567385 
586.246190  	68.448285 
587.683068  	68.410067 
589.119946  	68.465573 
590.556824  	68.358443 
591.993702  	68.172778 
593.430580  	68.134412 
594.867458  	68.105684 
596.304336  	68.163452 
597.741214  	68.242145 
599.178091  	68.087209 
600.614969  	67.978915 
602.051847  	67.986697 
603.488725  	67.949710 
604.925603  	67.986385 
606.362481  	67.981901 
607.799359  	67.810482 
609.236237  	67.807091 
610.673115  	67.845209 
612.109993  	67.842148 
613.546871  	67.855098 
614.983749  	67.811015 
616.420626  	67.798744 
617.857504  	67.838973 
619.294382  	67.824903 
620.731260  	67.826901 
622.168138  	67.832850 
623.605016  	67.806517 
625.041894  	67.835020 
626.478772  	67.766685 
627.915650  	67.645138 
629.352528  	67.711117 
630.789406  	67.824191 
632.226284  	67.842885 
633.663161  	67.827949 
635.100039  	67.851142 
636.536917  	67.994174 
637.973795  	68.133538 
639.410673  	68.188065 
640.847551  	68.273421 
642.284429  	68.382836 
643.721307  	68.430125 
645.158185  	68.467893 
646.595063  	68.517967 
648.031941  	68.590749 
649.468819  	68.727841 
650.905696  	68.852594 
652.342574  	68.991865 
653.779452  	69.166694 
655.216330  	69.279753 
656.653208  	69.381487 
658.090086  	69.506656 
659.526964  	69.623574 
660.963842  	69.768913 
662.400720  	69.954187 
663.837598  	70.102296 
665.274476  	70.168813 
666.711354  	70.272893 
668.148231  	70.497756 
669.585109  	70.746599 
671.021987  	70.846739 
672.458865  	70.963048 
673.895743  	71.143097 
675.332621  	71.316305 
676.769499  	71.523066 
678.206377  	71.725512 
679.643255  	71.864412 
681.080133  	72.053016 
682.517011  	72.308409 
683.953889  	72.523877 
685.390766  	72.701059 
686.827644  	72.872757 
688.264522  	73.059295 
689.701400  	73.262364 
691.138278  	73.446705 
692.575156  	73.628728 
694.012034  	73.821036 
695.448912  	73.985811 
696.885790  	74.132247 
698.322668  	74.264797 
699.759546  	74.457679 
701.196424  	74.688405 
702.633301  	74.908008 
704.070179  	75.081603 
705.507057  	75.246315 
706.943935  	75.453057 
708.380813  	75.657566 
709.817691  	75.814417 
711.254569  	75.999141 
712.691447  	76.188164 
714.128325  	76.345176 
715.565203  	76.590633 
717.002081  	76.866271 
718.438959  	76.989018 
719.875837  	77.072831 
721.312714  	77.258679 
722.749592  	77.478654 
724.186470  	77.674691 
725.623348  	77.877337 
727.060226  	78.103390 
728.497104  	78.299917 
729.933982  	78.474794 
731.370860  	78.648272 
732.807738  	78.801727 
734.244616  	79.002323 
735.681494  	79.217092 
737.118372  	79.418833 
738.555249  	79.670800 
739.992127  	79.855674 
741.429005  	79.905189 
742.865883  	80.061259 
744.302761  	80.309837 
745.739639  	80.515187 
747.176517  	80.727007 
748.613395  	80.888081 
750.050273  	80.986885 
751.487151  	81.125334 
752.924029  	81.304259 
754.360907  	81.535566 
755.797784  	81.762522 
757.234662  	81.902706 
758.671540  	82.056897 
760.108418  	82.241152 
761.545296  	82.381700 
762.982174  	82.559756 
764.419052  	82.777283 
765.855930  	82.907426 
767.292808  	82.985548 
768.729686  	83.143121 
770.166564  	83.370531 
771.603442  	83.574770 
773.040319  	83.733088 
774.477197  	83.858926 
775.914075  	83.961901 
777.350953  	84.057395 
778.787831  	84.154667 
780.224709  	84.302321 
781.661587  	84.509144 
783.098465  	84.662081 
784.535343  	84.752588 
785.972221  	84.877884 
787.409099  	84.964592 
788.845977  	84.939960 
790.282854  	84.937809 
791.719732  	85.004737 
793.156610  	85.035125 
794.593488  	85.013822 
796.030366  	84.954742 
797.467244  	84.849789 
798.904122  	84.714467 
800.341000  	84.484906 
801.777878  	84.100363 
803.214756  	83.533738 
804.651634  	82.676649 
806.088512  	81.447268 
807.525389  	79.682937 
808.962267  	76.996196 
810.399145  	72.928347 
811.836023  	67.267814 
813.272901  	60.748848 
814.709779  	55.082677 
816.146657  	52.438256 
817.583535  	54.413588 
819.020413  	60.691533 
820.457291  	68.901993 
821.894169  	76.010783 
823.331047  	80.794139 
824.767924  	83.624197 
826.204802  	85.263281 
827.641680  	86.320868 
829.078558  	87.021630 
830.515436  	87.523053 
831.952314  	87.918967 
833.389192  	88.211470 
834.826070  	88.453835 
836.262948  	88.606143 
837.699826  	88.713726 
839.136704  	88.878870 
840.573582  	88.998059 
842.010459  	89.068677 
843.447337  	89.160659 
844.884215  	89.242067 
846.321093  	89.352643 
847.757971  	89.439887 
849.194849  	89.444671 
850.631727  	89.474430 
852.068605  	89.520992 
853.505483  	89.566749 
854.942361  	89.651393 
856.379239  	89.692862 
857.816117  	89.695747 
859.252994  	89.725694 
860.689872  	89.745712 
862.126750  	89.735815 
863.563628  	89.699930 
865.000506  	89.665667 
866.437384  	89.653057 
867.874262  	89.643702 
869.311140  	89.656381 
870.748018  	89.634973 
872.184896  	89.532315 
873.621774  	89.462716 
875.058652  	89.455994 
876.495529  	89.453471 
877.932407  	89.452280 
879.369285  	89.432897 
880.806163  	89.382747 
882.243041  	89.280116 
883.679919  	89.147458 
885.116797  	89.063337 
886.553675  	88.972827 
887.990553  	88.851929 
889.427431  	88.760845 
890.864309  	88.627156 
892.301187  	88.454737 
893.738064  	88.309227 
895.174942  	88.140228 
896.611820  	87.978978 
898.048698  	87.826912 
899.485576  	87.610632 
900.922454  	87.392558 
902.359332  	87.170162 
903.796210  	86.898936 
905.233088  	86.637306 
906.669966  	86.338304 
908.106844  	85.969249 
909.543722  	85.598092 
910.980599  	85.201151 
912.417477  	84.735985 
913.854355  	84.176087 
915.291233  	83.541375 
916.728111  	82.894852 
918.164989  	82.180179 
919.601867  	81.445118 
921.038745  	80.814332 
922.475623  	80.166155 
923.912501  	79.428392 
925.349379  	78.580066 
926.786257  	77.504537 
928.223134  	76.228402 
929.660012  	74.702107 
931.096890  	72.884350 
932.533768  	70.925482 
933.970646  	68.775715 
935.407524  	66.496636 
936.844402  	64.143802 
938.281280  	61.288769 
939.718158  	57.751332 
941.155036  	53.458060 
942.591914  	48.352422 
944.028792  	43.018210 
945.465670  	37.756935 
946.902547  	32.932943 
948.339425  	29.469608 
949.776303  	27.711158 
951.213181  	28.366885 
952.650059  	32.003016 
954.086937  	37.923943 
955.523815  	45.452210 
956.960693  	53.857014 
958.397571  	62.229229 
959.834449  	69.740855 
961.271327  	75.703541 
962.708205  	79.938089 
964.145082  	82.821182 
965.581960  	84.819659 
967.018838  	86.167065 
968.455716  	87.123773 
969.892594  	87.841861 
971.329472  	88.338584 
972.766350  	88.781687 
974.203228  	89.174667 
975.640106  	89.413600 
977.076984  	89.596300 
978.513862  	89.755467 
979.950740  	89.901318 
981.387617  	90.071675 
982.824495  	90.203252 
984.261373  	90.355915 
985.698251  	90.563883 
987.135129  	90.711584 
988.572007  	90.827931 
990.008885  	90.941942 
991.445763  	91.014673 
992.882641  	91.075834 
994.319519  	91.093087 
995.756397  	91.071238 
997.193275  	91.073926 
998.630152  	91.067037 
1000.067030  	91.036910 
1001.503908  	90.993839 
1002.940786  	90.943145 
1004.377664  	90.918321 
1005.814542  	90.868345 
1007.251420  	90.770817 
1008.688298  	90.697180 
1010.125176  	90.629185 
1011.562054  	90.541630 
1012.998932  	90.477021 
1014.435810  	90.416728 
1015.872687  	90.327892 
1017.309565  	90.240926 
1018.746443  	90.159371 
1020.183321  	90.040695 
1021.620199  	89.915083 
1023.057077  	89.828995 
1024.493955  	89.731882 
1025.930833  	89.620926 
1027.367711  	89.535162 
1028.804589  	89.424091 
1030.241467  	89.289412 
1031.678345  	89.182394 
1033.115222  	89.084118 
1034.552100  	88.982679 
1035.988978  	88.858182 
1037.425856  	88.687508 
1038.862734  	88.503595 
1040.299612  	88.321626 
1041.736490  	88.153302 
1043.173368  	87.993236 
1044.610246  	87.788045 
1046.047124  	87.564891 
1047.484002  	87.383558 
1048.920880  	87.221153 
1050.357757  	87.034044 
1051.794635  	86.799856 
1053.231513  	86.555463 
1054.668391  	86.332628 
1056.105269  	86.074762 
1057.542147  	85.779802 
1058.979025  	85.476230 
1060.415903  	85.118848 
1061.852781  	84.730311 
1063.289659  	84.349126 
1064.726537  	83.936055 
1066.163415  	83.511776 
1067.600292  	83.083278 
1069.037170  	82.590903 
1070.474048  	82.058524 
1071.910926  	81.503064 
1073.347804  	80.895051 
1074.784682  	80.234426 
1076.221560  	79.495607 
1077.658438  	78.718497 
1079.095316  	77.915172 
1080.532194  	76.962811 
1081.969072  	75.909448 
1083.405950  	74.811241 
1084.842827  	73.566424 
1086.279705  	72.222903 
1087.716583  	70.760281 
1089.153461  	69.143280 
1090.590339  	67.495126 
1092.027217  	65.726989 
1093.464095  	63.923553 
1094.900973  	62.223216 
1096.337851  	60.404337 
1097.774729  	58.652329 
1099.211607  	57.105805 
1100.648485  	55.617532 
1102.085362  	54.481421 
1103.522240  	53.676150 
1104.959118  	53.134068 
1106.395996  	53.041815 
1107.832874  	53.131408 
1109.269752  	53.438370 
1110.706630  	53.994017 
1112.143508  	54.529332 
1113.580386  	55.212588 
1115.017264  	55.882576 
1116.454142  	56.289741 
1117.891020  	56.458079 
1119.327897  	55.974056 
1120.764775  	54.736138 
1122.201653  	52.962037 
1123.638531  	50.772640 
1125.075409  	48.848567 
1126.512287  	47.652541 
1127.949165  	47.386619 
1129.386043  	48.429511 
1130.822921  	50.413507 
1132.259799  	53.099672 
1133.696677  	56.402174 
1135.133555  	59.714559 
1136.570432  	62.718593 
1138.007310  	65.176908 
1139.444188  	66.927328 
1140.881066  	68.100514 
1142.317944  	68.686936 
1143.754822  	68.793065 
1145.191700  	68.557177 
1146.628578  	67.900764 
1148.065456  	66.978910 
1149.502334  	65.822173 
1150.939212  	64.311257 
1152.376090  	62.672954 
1153.812967  	60.919951 
1155.249845  	59.110150 
1156.686723  	57.597689 
1158.123601  	56.447431 
1159.560479  	55.963494 
1160.997357  	56.419340 
1162.434235  	57.768990 
1163.871113  	60.218611 
1165.307991  	63.615376 
1166.744869  	67.584793 
1168.181747  	71.810666 
1169.618625  	75.770884 
1171.055502  	79.145272 
1172.492380  	81.846471 
1173.929258  	83.876283 
1175.366136  	85.372028 
1176.803014  	86.476669 
1178.239892  	87.224408 
1179.676770  	87.704135 
1181.113648  	88.049071 
1182.550526  	88.258270 
1183.987404  	88.352173 
1185.424282  	88.400808 
1186.861160  	88.421831 
1188.298038  	88.469706 
1189.734915  	88.574661 
1191.171793  	88.711386 
1192.608671  	88.866379 
1194.045549  	89.009760 
1195.482427  	89.131292 
1196.919305  	89.218315 
1198.356183  	89.248322 
1199.793061  	89.270952 
1201.229939  	89.292064 
1202.666817  	89.278367 
1204.103695  	89.254596 
1205.540573  	89.214258 
1206.977450  	89.158547 
1208.414328  	89.102219 
1209.851206  	89.034850 
1211.288084  	88.979328 
1212.724962  	88.906178 
1214.161840  	88.808167 
1215.598718  	88.750069 
1217.035596  	88.676382 
1218.472474  	88.563070 
1219.909352  	88.483697 
1221.346230  	88.410089 
1222.783108  	88.323998 
1224.219985  	88.243473 
1225.656863  	88.151249 
1227.093741  	88.067132 
1228.530619  	87.992992 
1229.967497  	87.922012 
1231.404375  	87.853906 
1232.841253  	87.770673 
1234.278131  	87.713354 
1235.715009  	87.662449 
1237.151887  	87.551116 
1238.588765  	87.431427 
1240.025643  	87.315273 
1241.462520  	87.174296 
1242.899398  	87.028213 
1244.336276  	86.856246 
1245.773154  	86.686538 
1247.210032  	86.535672 
1248.646910  	86.346991 
1250.083788  	86.157190 
1251.520666  	85.988318 
1252.957544  	85.811814 
1254.394422  	85.649300 
1255.831300  	85.470517 
1257.268178  	85.267097 
1258.705055  	85.079393 
1260.141933  	84.870059 
1261.578811  	84.634396 
1263.015689  	84.393913 
1264.452567  	84.110654 
1265.889445  	83.796482 
1267.326323  	83.479700 
1268.763201  	83.122143 
1270.200079  	82.700981 
1271.636957  	82.255247 
1273.073835  	81.807874 
1274.510713  	81.321379 
1275.947590  	80.775707 
1277.384468  	80.191809 
1278.821346  	79.574499 
1280.258224  	78.896177 
1281.695102  	78.169470 
1283.131980  	77.452828 
1284.568858  	76.712075 
1286.005736  	75.924067 
1287.442614  	75.148823 
1288.879492  	74.366755 
1290.316370  	73.606540 
1291.753248  	72.903672 
1293.190125  	72.218566 
1294.627003  	71.616157 
1296.063881  	71.055052 
1297.500759  	70.493823 
1298.937637  	70.040208 
1300.374515  	69.649632 
1301.811393  	69.367972 
1303.248271  	69.237948 
1304.685149  	69.142832 
1306.122027  	69.174541 
1307.558905  	69.300925 
1308.995783  	69.434669 
1310.432660  	69.689472 
1311.869538  	69.989757 
1313.306416  	70.355393 
1314.743294  	70.852564 
1316.180172  	71.373486 
1317.617050  	72.041845 
1319.053928  	72.853837 
1320.490806  	73.678459 
1321.927684  	74.594602 
1323.364562  	75.511110 
1324.801440  	76.297026 
1326.238318  	77.059177 
1327.675195  	77.629071 
1329.112073  	77.996787 
1330.548951  	78.137681 
1331.985829  	77.997506 
1333.422707  	77.640699 
1334.859585  	77.053719 
1336.296463  	76.179338 
1337.733341  	75.237352 
1339.170219  	74.424899 
1340.607097  	74.123709 
1342.043975  	74.642339 
1343.480853  	75.716053 
1344.917730  	77.116326 
1346.354608  	78.419034 
1347.791486  	79.049241 
1349.228364  	79.403605 
1350.665242  	79.985410 
1352.102120  	80.304788 
1353.538998  	79.825493 
1354.975876  	78.960497 
1356.412754  	78.070972 
1357.849632  	77.147662 
1359.286510  	75.326162 
1360.723388  	73.211722 
1362.160265  	70.777953 
1363.597143  	68.102858 
1365.034021  	66.076615 
1366.470899  	64.787208 
1367.907777  	64.756344 
1369.344655  	65.352506 
1370.781533  	66.026818 
1372.218411  	66.238860 
1373.655289  	65.501257 
1375.092167  	63.679625 
1376.529045  	61.887292 
1377.965923  	60.534258 
1379.402800  	60.873951 
1380.839678  	63.162716 
1382.276556  	65.805885 
1383.713434  	69.630288 
1385.150312  	72.756929 
1386.587190  	75.084088 
1388.024068  	77.098723 
1389.460946  	78.193362 
1390.897824  	79.312568 
1392.334702  	79.313221 
1393.771580  	79.178235 
1395.208458  	79.015666 
1396.645335  	78.790146 
1398.082213  	78.525198 
1399.519091  	78.245820 
1400.955969  	77.941112 
1402.392847  	77.635843 
1403.829725  	77.328041 
1405.266603  	77.075132 
1406.703481  	76.907073 
1408.140359  	76.769847 
1409.577237  	76.791789 
1411.014115  	76.994900 
1412.450993  	77.293479 
1413.887871  	77.671168 
1415.324748  	78.045767 
1416.761626  	78.316809 
1418.198504  	78.620295 
1419.635382  	79.063736 
1421.072260  	79.454078 
1422.509138  	79.674986 
1423.946016  	79.886098 
1425.382894  	80.215152 
1426.819772  	80.446515 
1428.256650  	80.638162 
1429.693528  	80.889391 
1431.130406  	81.122689 
1432.567283  	81.358124 
1434.004161  	81.577095 
1435.441039  	81.741542 
1436.877917  	82.011813 
1438.314795  	82.276797 
1439.751673  	82.435860 
1441.188551  	82.589909 
1442.625429  	82.683323 
1444.062307  	82.741219 
1445.499185  	82.525842 
1446.936063  	82.120214 
1448.372941  	81.590633 
1449.809818  	80.914289 
1451.246696  	80.172885 
1452.683574  	79.416449 
1454.120452  	78.815975 
1455.557330  	78.351395 
1456.994208  	77.953659 
1458.431086  	77.548610 
1459.867964  	76.953147 
1461.304842  	76.262534 
1462.741720  	75.507988 
1464.178598  	74.817762 
1465.615476  	74.419864 
1467.052353  	74.208434 
1468.489231  	74.693690 
1469.926109  	75.882730 
1471.362987  	77.161319 
1472.799865  	79.120085 
1474.236743  	80.745228 
1475.673621  	81.628415 
1477.110499  	82.749553 
1478.547377  	83.532278 
1479.984255  	84.126607 
1481.421133  	84.827644 
1482.858011  	85.323439 
1484.294888  	85.811518 
1485.731766  	86.131229 
1487.168644  	86.409303 
1488.605522  	86.713376 
1490.042400  	86.945176 
1491.479278  	87.230559 
1492.916156  	87.495589 
1494.353034  	87.650141 
1495.789912  	87.858221 
1497.226790  	88.073190 
1498.663668  	88.232991 
1500.100546  	88.452670 
1501.537423  	88.631664 
1502.974301  	88.786607 
1504.411179  	88.862850 
1505.848057  	88.883560 
1507.284935  	88.951225 
1508.721813  	89.057288 
1510.158691  	89.113095 
1511.595569  	89.204979 
1513.032447  	89.257816 
1514.469325  	89.303321 
1515.906203  	89.356340 
1517.343081  	89.391506 
1518.779958  	89.443571 
1520.216836  	89.469589 
1521.653714  	89.486902 
