##TITLE=No Description
##DATA TYPE=INFRARED SPECTRUM
##XUNITS=1/CM
##YUNITS=%T
399.452061  	74.709154 
400.888939  	75.365133 
402.325817  	74.219191 
403.762695  	72.445267 
405.199573  	72.682247 
406.636451  	72.593899 
408.073328  	71.664685 
409.510206  	71.733243 
410.947084  	72.060629 
412.383962  	71.415108 
413.820840  	70.354563 
415.257718  	69.393336 
416.694596  	67.859836 
418.131474  	65.990719 
419.568352  	66.529158 
421.005230  	67.054866 
422.442108  	66.021301 
423.878986  	65.054821 
425.315863  	64.873630 
426.752741  	65.426200 
428.189619  	66.339990 
429.626497  	66.721997 
431.063375  	67.312742 
432.500253  	68.685525 
433.937131  	69.603527 
435.374009  	69.854652 
436.810887  	70.154966 
438.247765  	70.775327 
439.684643  	71.301040 
441.121521  	71.815626 
442.558398  	72.403137 
443.995276  	72.036611 
445.432154  	71.535158 
446.869032  	71.908836 
448.305910  	71.902266 
449.742788  	72.022873 
451.179666  	72.978022 
452.616544  	73.436755 
454.053422  	73.272607 
455.490300  	73.138450 
456.927178  	72.893439 
458.364056  	72.802660 
459.800933  	72.716058 
461.237811  	72.676494 
462.674689  	72.766994 
464.111567  	72.523088 
465.548445  	72.208861 
466.985323  	71.718144 
468.422201  	71.161496 
469.859079  	71.756383 
471.295957  	72.868991 
472.732835  	73.041454 
474.169713  	72.447172 
475.606591  	71.847105 
477.043469  	71.314813 
478.480346  	70.780162 
479.917224  	70.172682 
481.354102  	69.096925 
482.790980  	67.516956 
484.227858  	66.676090 
485.664736  	66.848730 
487.101614  	66.809325 
488.538492  	66.771844 
489.975370  	67.378846 
491.412248  	68.300220 
492.849126  	69.487340 
494.286004  	70.489171 
495.722881  	70.869304 
497.159759  	71.269338 
498.596637  	71.858273 
500.033515  	72.424964 
501.470393  	73.013627 
502.907271  	73.470894 
504.344149  	73.746335 
505.781027  	73.726723 
507.217905  	73.724981 
508.654783  	74.111088 
510.091661  	74.235758 
511.528539  	74.291098 
512.965416  	74.738170 
514.402294  	74.736828 
515.839172  	74.331259 
517.276050  	74.329514 
518.712928  	74.574460 
520.149806  	74.760630 
521.586684  	74.766834 
523.023562  	74.652379 
524.460440  	74.679398 
525.897318  	74.711596 
527.334196  	74.689757 
528.771074  	74.768625 
530.207951  	74.817429 
531.644829  	74.760024 
533.081707  	74.647082 
534.518585  	74.567453 
535.955463  	74.558099 
537.392341  	74.621925 
538.829219  	74.900218 
540.266097  	75.133813 
541.702975  	74.967096 
543.139853  	74.792457 
544.576731  	74.898934 
546.013609  	74.968119 
547.450486  	74.793294 
548.887364  	74.559260 
550.324242  	74.509671 
551.761120  	74.556849 
553.197998  	74.572879 
554.634876  	74.583057 
556.071754  	74.468171 
557.508632  	74.343558 
558.945510  	74.322904 
560.382388  	74.110708 
561.819266  	73.799153 
563.256144  	73.681627 
564.693021  	73.661287 
566.129899  	73.682325 
567.566777  	73.665411 
569.003655  	73.497363 
570.440533  	73.334275 
571.877411  	73.185952 
573.314289  	72.962284 
574.751167  	72.787621 
576.188045  	72.739445 
577.624923  	72.702047 
579.061801  	72.608395 
580.498679  	72.539382 
581.935556  	72.487318 
583.372434  	72.414787 
584.809312  	72.392319 
586.246190  	72.350567 
587.683068  	72.305985 
589.119946  	72.338161 
590.556824  	72.238348 
591.993702  	72.076487 
593.430580  	72.084820 
594.867458  	72.048035 
596.304336  	71.962305 
597.741214  	71.953369 
599.178091  	71.876883 
600.614969  	71.817930 
602.051847  	71.827999 
603.488725  	71.778477 
604.925603  	71.753301 
606.362481  	71.760645 
607.799359  	71.789603 
609.236237  	71.875720 
610.673115  	71.861610 
612.109993  	71.785293 
613.546871  	71.753797 
614.983749  	71.720372 
616.420626  	71.672157 
617.857504  	71.623885 
619.294382  	71.567802 
620.731260  	71.561490 
622.168138  	71.560634 
623.605016  	71.522964 
625.041894  	71.529525 
626.478772  	71.526212 
627.915650  	71.440757 
629.352528  	71.354500 
630.789406  	71.367229 
632.226284  	71.418873 
633.663161  	71.393509 
635.100039  	71.385921 
636.536917  	71.462561 
637.973795  	71.598671 
639.410673  	71.652749 
640.847551  	71.683545 
642.284429  	71.718909 
643.721307  	71.809168 
645.158185  	71.917593 
646.595063  	71.998397 
648.031941  	72.113983 
649.468819  	72.219853 
650.905696  	72.300133 
652.342574  	72.403884 
653.779452  	72.540751 
655.216330  	72.688456 
656.653208  	72.838856 
658.090086  	72.969718 
659.526964  	73.063255 
660.963842  	73.139253 
662.400720  	73.288088 
663.837598  	73.476970 
665.274476  	73.565568 
666.711354  	73.661515 
668.148231  	73.865676 
669.585109  	74.085361 
671.021987  	74.198557 
672.458865  	74.317283 
673.895743  	74.509814 
675.332621  	74.760901 
676.769499  	74.961117 
678.206377  	75.065084 
679.643255  	75.163491 
681.080133  	75.346522 
682.517011  	75.542385 
683.953889  	75.679406 
685.390766  	75.813929 
686.827644  	75.992613 
688.264522  	76.213482 
689.701400  	76.407484 
691.138278  	76.580696 
692.575156  	76.769542 
694.012034  	76.942241 
695.448912  	77.083809 
696.885790  	77.298138 
698.322668  	77.500891 
699.759546  	77.666239 
701.196424  	77.815618 
702.633301  	77.968291 
704.070179  	78.195158 
705.507057  	78.430277 
706.943935  	78.622260 
708.380813  	78.797547 
709.817691  	79.004599 
711.254569  	79.223970 
712.691447  	79.363800 
714.128325  	79.516050 
715.565203  	79.791905 
717.002081  	80.003528 
718.438959  	80.075365 
719.875837  	80.191281 
721.312714  	80.444119 
722.749592  	80.697915 
724.186470  	80.877731 
725.623348  	80.994794 
727.060226  	81.163430 
728.497104  	81.419683 
729.933982  	81.652750 
731.370860  	81.809245 
732.807738  	81.948771 
734.244616  	82.085271 
735.681494  	82.202115 
737.118372  	82.358946 
738.555249  	82.578863 
739.992127  	82.768045 
741.429005  	82.934661 
742.865883  	83.145084 
744.302761  	83.299039 
745.739639  	83.402869 
747.176517  	83.603687 
748.613395  	83.834125 
750.050273  	84.011664 
751.487151  	84.197896 
752.924029  	84.375706 
754.360907  	84.530151 
755.797784  	84.690073 
757.234662  	84.839250 
758.671540  	85.005936 
760.108418  	85.188476 
761.545296  	85.345634 
762.982174  	85.517663 
764.419052  	85.715680 
765.855930  	85.916792 
767.292808  	86.122854 
768.729686  	86.316958 
770.166564  	86.522231 
771.603442  	86.697297 
773.040319  	86.772604 
774.477197  	86.893986 
775.914075  	87.104146 
777.350953  	87.235034 
778.787831  	87.345163 
780.224709  	87.511578 
781.661587  	87.650537 
783.098465  	87.819559 
784.535343  	88.016729 
785.972221  	88.131942 
787.409099  	88.242095 
788.845977  	88.401016 
790.282854  	88.522108 
791.719732  	88.563505 
793.156610  	88.576294 
794.593488  	88.656966 
796.030366  	88.744050 
797.467244  	88.716945 
798.904122  	88.632493 
800.341000  	88.488419 
801.777878  	88.238868 
803.214756  	87.922303 
804.651634  	87.421011 
806.088512  	86.542078 
807.525389  	85.105150 
808.962267  	82.783505 
810.399145  	79.081234 
811.836023  	73.620199 
813.272901  	66.995638 
814.709779  	60.898419 
816.146657  	57.609942 
817.583535  	58.948139 
819.020413  	64.644647 
820.457291  	72.337574 
821.894169  	79.118368 
823.331047  	83.700546 
824.767924  	86.349540 
826.204802  	87.870261 
827.641680  	88.866111 
829.078558  	89.531753 
830.515436  	90.032091 
831.952314  	90.447225 
833.389192  	90.773197 
834.826070  	91.067735 
836.262948  	91.296413 
837.699826  	91.471136 
839.136704  	91.629861 
840.573582  	91.715546 
842.010459  	91.814850 
843.447337  	91.972128 
844.884215  	92.088442 
846.321093  	92.197753 
847.757971  	92.308837 
849.194849  	92.385098 
850.631727  	92.469195 
852.068605  	92.544902 
853.505483  	92.626668 
854.942361  	92.728302 
856.379239  	92.771367 
857.816117  	92.785996 
859.252994  	92.836803 
860.689872  	92.918211 
862.126750  	93.013218 
863.563628  	93.047217 
865.000506  	93.029100 
866.437384  	93.043851 
867.874262  	93.059981 
869.311140  	93.065330 
870.748018  	93.089902 
872.184896  	93.103143 
873.621774  	93.124296 
875.058652  	93.176015 
876.495529  	93.197729 
877.932407  	93.167605 
879.369285  	93.142965 
880.806163  	93.132827 
882.243041  	93.080026 
883.679919  	93.025178 
885.116797  	93.032513 
886.553675  	93.032867 
887.990553  	93.014525 
889.427431  	93.010287 
890.864309  	92.938642 
892.301187  	92.827787 
893.738064  	92.783736 
895.174942  	92.749939 
896.611820  	92.659544 
898.048698  	92.535691 
899.485576  	92.412249 
900.922454  	92.302199 
902.359332  	92.172497 
903.796210  	92.029479 
905.233088  	91.895992 
906.669966  	91.719633 
908.106844  	91.489967 
909.543722  	91.211520 
910.980599  	90.868453 
912.417477  	90.523373 
913.854355  	90.157328 
915.291233  	89.685239 
916.728111  	89.143687 
918.164989  	88.557978 
919.601867  	87.975190 
921.038745  	87.469764 
922.475623  	86.958181 
923.912501  	86.389132 
925.349379  	85.720762 
926.786257  	84.832643 
928.223134  	83.727667 
929.660012  	82.349906 
931.096890  	80.664325 
932.533768  	78.797435 
933.970646  	76.691988 
935.407524  	74.422906 
936.844402  	72.061533 
938.281280  	69.176354 
939.718158  	65.565148 
941.155036  	61.096561 
942.591914  	55.589967 
944.028792  	49.630547 
945.465670  	43.638647 
946.902547  	38.015383 
948.339425  	33.795418 
949.776303  	31.443145 
951.213181  	31.685449 
952.650059  	35.127977 
954.086937  	40.988447 
955.523815  	48.452658 
956.960693  	56.795002 
958.397571  	65.063601 
959.834449  	72.352858 
961.271327  	78.075134 
962.708205  	82.174093 
964.145082  	84.972239 
965.581960  	86.892506 
967.018838  	88.229229 
968.455716  	89.204129 
969.892594  	89.943963 
971.329472  	90.524029 
972.766350  	91.015244 
974.203228  	91.376748 
975.640106  	91.630090 
977.076984  	91.856211 
978.513862  	92.044220 
979.950740  	92.225151 
981.387617  	92.400868 
982.824495  	92.553018 
984.261373  	92.746800 
985.698251  	92.954890 
987.135129  	93.148418 
988.572007  	93.337813 
990.008885  	93.446864 
991.445763  	93.512107 
992.882641  	93.601273 
994.319519  	93.682457 
995.756397  	93.770022 
997.193275  	93.824802 
998.630152  	93.831672 
1000.067030  	93.856770 
1001.503908  	93.862688 
1002.940786  	93.875112 
1004.377664  	93.916342 
1005.814542  	93.902363 
1007.251420  	93.905027 
1008.688298  	93.929873 
1010.125176  	93.880916 
1011.562054  	93.859039 
1012.998932  	93.878140 
1014.435810  	93.851175 
1015.872687  	93.816214 
1017.309565  	93.777275 
1018.746443  	93.753926 
1020.183321  	93.764669 
1021.620199  	93.731370 
1023.057077  	93.661537 
1024.493955  	93.599183 
1025.930833  	93.551910 
1027.367711  	93.519868 
1028.804589  	93.452222 
1030.241467  	93.381617 
1031.678345  	93.361413 
1033.115222  	93.337650 
1034.552100  	93.301202 
1035.988978  	93.238014 
1037.425856  	93.132999 
1038.862734  	93.054374 
1040.299612  	92.979721 
1041.736490  	92.869785 
1043.173368  	92.759164 
1044.610246  	92.639825 
1046.047124  	92.532292 
1047.484002  	92.439931 
1048.920880  	92.314390 
1050.357757  	92.184534 
1051.794635  	92.045791 
1053.231513  	91.862893 
1054.668391  	91.669875 
1056.105269  	91.473063 
1057.542147  	91.282723 
1058.979025  	91.092429 
1060.415903  	90.829212 
1061.852781  	90.528244 
1063.289659  	90.253812 
1064.726537  	89.946165 
1066.163415  	89.582461 
1067.600292  	89.195809 
1069.037170  	88.786573 
1070.474048  	88.373381 
1071.910926  	87.940031 
1073.347804  	87.444303 
1074.784682  	86.908919 
1076.221560  	86.303292 
1077.658438  	85.591190 
1079.095316  	84.844650 
1080.532194  	84.035669 
1081.969072  	83.063428 
1083.405950  	81.943332 
1084.842827  	80.726218 
1086.279705  	79.423113 
1087.716583  	77.960984 
1089.153461  	76.338005 
1090.590339  	74.652588 
1092.027217  	72.845679 
1093.464095  	70.997964 
1094.900973  	69.188645 
1096.337851  	67.233365 
1097.774729  	65.334072 
1099.211607  	63.619358 
1100.648485  	61.960928 
1102.085362  	60.644593 
1103.522240  	59.651542 
1104.959118  	58.931124 
1106.395996  	58.688452 
1107.832874  	58.660882 
1109.269752  	58.876418 
1110.706630  	59.388550 
1112.143508  	59.911985 
1113.580386  	60.583783 
1115.017264  	61.273246 
1116.454142  	61.716565 
1117.891020  	61.894419 
1119.327897  	61.406206 
1120.764775  	60.146491 
1122.201653  	58.310084 
1123.638531  	55.991513 
1125.075409  	53.855382 
1126.512287  	52.411830 
1127.949165  	51.891821 
1129.386043  	52.698638 
1130.822921  	54.516569 
1132.259799  	57.104156 
1133.696677  	60.348504 
1135.133555  	63.618198 
1136.570432  	66.596380 
1138.007310  	69.073689 
1139.444188  	70.873327 
1140.881066  	72.119653 
1142.317944  	72.805817 
1143.754822  	73.010872 
1145.191700  	72.908065 
1146.628578  	72.418404 
1148.065456  	71.589859 
1149.502334  	70.471884 
1150.939212  	69.029653 
1152.376090  	67.443934 
1153.812967  	65.691596 
1155.249845  	63.829987 
1156.686723  	62.189703 
1158.123601  	60.867946 
1159.560479  	60.210757 
1160.997357  	60.495627 
1162.434235  	61.676299 
1163.871113  	63.944165 
1165.307991  	67.131227 
1166.744869  	70.876140 
1168.181747  	74.891808 
1169.618625  	78.696145 
1171.055502  	81.976411 
1172.492380  	84.586599 
1173.929258  	86.525580 
1175.366136  	87.983875 
1176.803014  	89.072700 
1178.239892  	89.807849 
1179.676770  	90.317425 
1181.113648  	90.706690 
1182.550526  	90.949874 
1183.987404  	91.082188 
1185.424282  	91.170332 
1186.861160  	91.252725 
1188.298038  	91.369196 
1189.734915  	91.489591 
1191.171793  	91.626661 
1192.608671  	91.823214 
1194.045549  	91.997965 
1195.482427  	92.125576 
1196.919305  	92.255064 
1198.356183  	92.346454 
1199.793061  	92.395310 
1201.229939  	92.427804 
1202.666817  	92.434389 
1204.103695  	92.449294 
1205.540573  	92.469982 
1206.977450  	92.454055 
1208.414328  	92.422961 
1209.851206  	92.407255 
1211.288084  	92.394784 
1212.724962  	92.363666 
1214.161840  	92.324909 
1215.598718  	92.282358 
1217.035596  	92.217615 
1218.472474  	92.164987 
1219.909352  	92.136149 
1221.346230  	92.098202 
1222.783108  	92.059915 
1224.219985  	92.007962 
1225.656863  	91.940351 
1227.093741  	91.887270 
1228.530619  	91.827289 
1229.967497  	91.783042 
1231.404375  	91.776733 
1232.841253  	91.748560 
1234.278131  	91.701041 
1235.715009  	91.669261 
1237.151887  	91.645296 
1238.588765  	91.599529 
1240.025643  	91.493735 
1241.462520  	91.378560 
1242.899398  	91.292460 
1244.336276  	91.183391 
1245.773154  	91.066580 
1247.210032  	90.947677 
1248.646910  	90.808830 
1250.083788  	90.692502 
1251.520666  	90.570094 
1252.957544  	90.423065 
1254.394422  	90.293725 
1255.831300  	90.155009 
1257.268178  	90.000825 
1258.705055  	89.850970 
1260.141933  	89.696546 
1261.578811  	89.534066 
1263.015689  	89.328159 
1264.452567  	89.089346 
1265.889445  	88.852162 
1267.326323  	88.582439 
1268.763201  	88.285930 
1270.200079  	87.958397 
1271.636957  	87.570182 
1273.073835  	87.170088 
1274.510713  	86.755683 
1275.947590  	86.273644 
1277.384468  	85.728813 
1278.821346  	85.145791 
1280.258224  	84.532491 
1281.695102  	83.868155 
1283.131980  	83.158306 
1284.568858  	82.422480 
1286.005736  	81.664500 
1287.442614  	80.898794 
1288.879492  	80.114693 
1290.316370  	79.366345 
1291.753248  	78.672598 
1293.190125  	77.956659 
1294.627003  	77.282414 
1296.063881  	76.659492 
1297.500759  	76.054390 
1298.937637  	75.559043 
1300.374515  	75.133033 
1301.811393  	74.806962 
1303.248271  	74.624767 
1304.685149  	74.469692 
1306.122027  	74.415128 
1307.558905  	74.457039 
1308.995783  	74.534911 
1310.432660  	74.755504 
1311.869538  	75.009432 
1313.306416  	75.305299 
1314.743294  	75.777635 
1316.180172  	76.297724 
1317.617050  	76.915283 
1319.053928  	77.691188 
1320.490806  	78.505909 
1321.927684  	79.369472 
1323.364562  	80.234385 
1324.801440  	81.032211 
1326.238318  	81.771715 
1327.675195  	82.377029 
1329.112073  	82.781781 
1330.548951  	82.991226 
1331.985829  	82.952389 
1333.422707  	82.657259 
1334.859585  	82.128545 
1336.296463  	81.328917 
1337.733341  	80.402593 
1339.170219  	79.549957 
1340.607097  	79.183948 
1342.043975  	79.610739 
1343.480853  	80.557696 
1344.917730  	81.839497 
1346.354608  	83.118075 
1347.791486  	83.732935 
1349.228364  	84.271770 
1350.665242  	84.934630 
1352.102120  	85.397197 
1353.538998  	85.007345 
1354.975876  	84.356427 
1356.412754  	83.648711 
1357.849632  	82.894244 
1359.286510  	81.142361 
1360.723388  	79.104356 
1362.160265  	76.741572 
1363.597143  	74.129675 
1365.034021  	71.966767 
1366.470899  	70.364005 
1367.907777  	70.114222 
1369.344655  	70.539115 
1370.781533  	71.137622 
1372.218411  	71.358888 
1373.655289  	70.694546 
1375.092167  	68.860602 
1376.529045  	66.918642 
1377.965923  	65.319471 
1379.402800  	65.314809 
1380.839678  	67.319648 
1382.276556  	70.242381 
1383.713434  	73.469716 
1385.150312  	76.522300 
1386.587190  	78.876787 
1388.024068  	80.915185 
1389.460946  	82.035860 
1390.897824  	83.222207 
1392.334702  	83.323305 
1393.771580  	83.280179 
1395.208458  	83.227263 
1396.645335  	83.048953 
1398.082213  	82.832142 
1399.519091  	82.623077 
1400.955969  	82.385015 
1402.392847  	82.138394 
1403.829725  	81.851622 
1405.266603  	81.590387 
1406.703481  	81.409014 
1408.140359  	81.265074 
1409.577237  	81.279025 
1411.014115  	81.460074 
1412.450993  	81.720246 
1413.887871  	82.048181 
1415.324748  	82.394531 
1416.761626  	82.688107 
1418.198504  	83.054248 
1419.635382  	83.511587 
1421.072260  	83.825108 
1422.509138  	84.009961 
1423.946016  	84.229566 
1425.382894  	84.568152 
1426.819772  	84.816326 
1428.256650  	85.018349 
1429.693528  	85.265075 
1431.130406  	85.528253 
1432.567283  	85.791039 
1434.004161  	86.029521 
1435.441039  	86.228011 
1436.877917  	86.528706 
1438.314795  	86.793265 
1439.751673  	86.961613 
1441.188551  	87.135898 
1442.625429  	87.273209 
1444.062307  	87.380323 
1445.499185  	87.231885 
1446.936063  	86.897301 
1448.372941  	86.419212 
1449.809818  	85.772876 
1451.246696  	85.089047 
1452.683574  	84.336863 
1454.120452  	83.721772 
1455.557330  	83.333724 
1456.994208  	82.971272 
1458.431086  	82.480789 
1459.867964  	81.838858 
1461.304842  	81.132409 
1462.741720  	80.411467 
1464.178598  	79.706755 
1465.615476  	79.165705 
1467.052353  	78.818417 
1468.489231  	79.134672 
1469.926109  	80.169478 
1471.362987  	81.376563 
1472.799865  	83.228785 
1474.236743  	84.761493 
1475.673621  	85.618048 
1477.110499  	86.704879 
1478.547377  	87.448869 
1479.984255  	88.023049 
1481.421133  	88.708363 
1482.858011  	89.181532 
1484.294888  	89.670189 
1485.731766  	90.000613 
1487.168644  	90.258444 
1488.605522  	90.549185 
1490.042400  	90.792270 
1491.479278  	91.065466 
1492.916156  	91.353502 
1494.353034  	91.540864 
1495.789912  	91.754576 
1497.226790  	91.984754 
1498.663668  	92.153190 
1500.100546  	92.359033 
1501.537423  	92.540616 
1502.974301  	92.727680 
1504.411179  	92.837805 
1505.848057  	92.867180 
1507.284935  	92.932784 
1508.721813  	93.048092 
1510.158691  	93.102389 
1511.595569  	93.208981 
1513.032447  	93.276919 
1514.469325  	93.339427 
1515.906203  	93.416369 
1517.343081  	93.431010 
1518.779958  	93.515303 
1520.216836  	93.593317 
1521.653714  	93.625314 
