##TITLE=No Description
##DATA TYPE=INFRARED SPECTRUM
##XUNITS=1/CM
##YUNITS=%T
399.452061  	77.367018 
400.888939  	77.749661 
402.325817  	76.714492 
403.762695  	75.461941 
405.199573  	75.237495 
406.636451  	74.221783 
408.073328  	73.778648 
409.510206  	74.091363 
410.947084  	73.570649 
412.383962  	72.854950 
413.820840  	71.465654 
415.257718  	70.142958 
416.694596  	69.704569 
418.131474  	68.660216 
419.568352  	67.039158 
421.005230  	66.576733 
422.442108  	66.763227 
423.878986  	67.605799 
425.315863  	67.860072 
426.752741  	67.779572 
428.189619  	68.388962 
429.626497  	68.873137 
431.063375  	69.177683 
432.500253  	69.839086 
433.937131  	70.708672 
435.374009  	71.823033 
436.810887  	72.537243 
438.247765  	72.873524 
439.684643  	73.547954 
441.121521  	74.050283 
442.558398  	73.534494 
443.995276  	72.893089 
445.432154  	73.575290 
446.869032  	74.292791 
448.305910  	73.700857 
449.742788  	73.185212 
451.179666  	73.152501 
452.616544  	73.637316 
454.053422  	74.891972 
455.490300  	74.985842 
456.927178  	74.397744 
458.364056  	74.837245 
459.800933  	74.718807 
461.237811  	74.548833 
462.674689  	74.824190 
464.111567  	74.389913 
465.548445  	74.143048 
466.985323  	73.568695 
468.422201  	72.368368 
469.859079  	72.935782 
471.295957  	74.056123 
472.732835  	73.991403 
474.169713  	74.036852 
475.606591  	73.585529 
477.043469  	72.369662 
478.480346  	71.580711 
479.917224  	70.672453 
481.354102  	69.479699 
482.790980  	68.709909 
484.227858  	68.042030 
485.664736  	67.577411 
487.101614  	67.635047 
488.538492  	67.956175 
489.975370  	68.601691 
491.412248  	69.422657 
492.849126  	70.283257 
494.286004  	71.188828 
495.722881  	71.901665 
497.159759  	72.556866 
498.596637  	73.329304 
500.033515  	73.995325 
501.470393  	74.317655 
502.907271  	74.457890 
504.344149  	74.726047 
505.781027  	74.848357 
507.217905  	74.823279 
508.654783  	74.947439 
510.091661  	75.031184 
511.528539  	75.172380 
512.965416  	75.416768 
514.402294  	75.435421 
515.839172  	75.346418 
517.276050  	75.192819 
518.712928  	75.101715 
520.149806  	75.352258 
521.586684  	75.517769 
523.023562  	75.541715 
524.460440  	75.669070 
525.897318  	75.575054 
527.334196  	75.458138 
528.771074  	75.564278 
530.207951  	75.546755 
531.644829  	75.502022 
533.081707  	75.482033 
534.518585  	75.407522 
535.955463  	75.496201 
537.392341  	75.523311 
538.829219  	75.351381 
540.266097  	75.334127 
541.702975  	75.366955 
543.139853  	75.226719 
544.576731  	75.145667 
546.013609  	75.246971 
547.450486  	75.293569 
548.887364  	75.163151 
550.324242  	75.067431 
551.761120  	75.045129 
553.197998  	74.913377 
554.634876  	74.743805 
556.071754  	74.575186 
557.508632  	74.307459 
558.945510  	74.109476 
560.382388  	74.106352 
561.819266  	74.099739 
563.256144  	73.973266 
564.693021  	73.787556 
566.129899  	73.605865 
567.566777  	73.496907 
569.003655  	73.426493 
570.440533  	73.316849 
571.877411  	73.274831 
573.314289  	73.247525 
574.751167  	73.043303 
576.188045  	72.848966 
577.624923  	72.788410 
579.061801  	72.667986 
580.498679  	72.574787 
581.935556  	72.534261 
583.372434  	72.387106 
584.809312  	72.310654 
586.246190  	72.327344 
587.683068  	72.220593 
589.119946  	72.106349 
590.556824  	72.099450 
591.993702  	72.083468 
593.430580  	72.030951 
594.867458  	72.020756 
596.304336  	72.024795 
597.741214  	71.900563 
599.178091  	71.763244 
600.614969  	71.818196 
602.051847  	71.858247 
603.488725  	71.747460 
604.925603  	71.669960 
606.362481  	71.625046 
607.799359  	71.564621 
609.236237  	71.505194 
610.673115  	71.446368 
612.109993  	71.454033 
613.546871  	71.462345 
614.983749  	71.394544 
616.420626  	71.329834 
617.857504  	71.325149 
619.294382  	71.300919 
620.731260  	71.248983 
622.168138  	71.242646 
623.605016  	71.279404 
625.041894  	71.270651 
626.478772  	71.217249 
627.915650  	71.224073 
629.352528  	71.268668 
630.789406  	71.278284 
632.226284  	71.261693 
633.663161  	71.303873 
635.100039  	71.369821 
636.536917  	71.388644 
637.973795  	71.395206 
639.410673  	71.435372 
640.847551  	71.494015 
642.284429  	71.592124 
643.721307  	71.721691 
645.158185  	71.830301 
646.595063  	71.880024 
648.031941  	71.953291 
649.468819  	72.122349 
650.905696  	72.279634 
652.342574  	72.350332 
653.779452  	72.409912 
655.216330  	72.510490 
656.653208  	72.619564 
658.090086  	72.738428 
659.526964  	72.857152 
660.963842  	72.980254 
662.400720  	73.121206 
663.837598  	73.256247 
665.274476  	73.320826 
666.711354  	73.413262 
668.148231  	73.672012 
669.585109  	73.889264 
671.021987  	73.968514 
672.458865  	74.132603 
673.895743  	74.367790 
675.332621  	74.546664 
676.769499  	74.712290 
678.206377  	74.886566 
679.643255  	75.075860 
681.080133  	75.263606 
682.517011  	75.414838 
683.953889  	75.596958 
685.390766  	75.804229 
686.827644  	75.945904 
688.264522  	76.089733 
689.701400  	76.271883 
691.138278  	76.435317 
692.575156  	76.608989 
694.012034  	76.785342 
695.448912  	76.979981 
696.885790  	77.178449 
698.322668  	77.352876 
699.759546  	77.510418 
701.196424  	77.681144 
702.633301  	77.843441 
704.070179  	78.051004 
705.507057  	78.246697 
706.943935  	78.444236 
708.380813  	78.642157 
709.817691  	78.794737 
711.254569  	78.934676 
712.691447  	79.167318 
714.128325  	79.379297 
715.565203  	79.586964 
717.002081  	79.759881 
718.438959  	79.890167 
719.875837  	80.052340 
721.312714  	80.206185 
722.749592  	80.382987 
724.186470  	80.612468 
725.623348  	80.801685 
727.060226  	80.983481 
728.497104  	81.197366 
729.933982  	81.345275 
731.370860  	81.472250 
732.807738  	81.616330 
734.244616  	81.823435 
735.681494  	82.067972 
737.118372  	82.257998 
738.555249  	82.413946 
739.992127  	82.585908 
741.429005  	82.690693 
742.865883  	82.854390 
744.302761  	83.055859 
745.739639  	83.194072 
747.176517  	83.422544 
748.613395  	83.660777 
750.050273  	83.745239 
751.487151  	83.856090 
752.924029  	84.076434 
754.360907  	84.298526 
755.797784  	84.488263 
757.234662  	84.643748 
758.671540  	84.794925 
760.108418  	84.968065 
761.545296  	85.127456 
762.982174  	85.265045 
764.419052  	85.428539 
765.855930  	85.623730 
767.292808  	85.787166 
768.729686  	85.933758 
770.166564  	86.114172 
771.603442  	86.270049 
773.040319  	86.410046 
774.477197  	86.576575 
775.914075  	86.691988 
777.350953  	86.790933 
778.787831  	86.946509 
780.224709  	87.081031 
781.661587  	87.218377 
783.098465  	87.399230 
784.535343  	87.518485 
785.972221  	87.615853 
787.409099  	87.775756 
788.845977  	87.887173 
790.282854  	87.937722 
791.719732  	88.034638 
793.156610  	88.111049 
794.593488  	88.092587 
796.030366  	88.074592 
797.467244  	88.094640 
798.904122  	88.034979 
800.341000  	87.834329 
801.777878  	87.544542 
803.214756  	87.131978 
804.651634  	86.485995 
806.088512  	85.492306 
807.525389  	83.908630 
808.962267  	81.477628 
810.399145  	77.809799 
811.836023  	72.362075 
813.272901  	65.626126 
814.709779  	59.491614 
816.146657  	56.327490 
817.583535  	57.808495 
819.020413  	63.676163 
820.457291  	71.586405 
821.894169  	78.471118 
823.331047  	83.060651 
824.767924  	85.737455 
826.204802  	87.286971 
827.641680  	88.344080 
829.078558  	89.089443 
830.515436  	89.585015 
831.952314  	89.970882 
833.389192  	90.277339 
834.826070  	90.508380 
836.262948  	90.707899 
837.699826  	90.916927 
839.136704  	91.132967 
840.573582  	91.303172 
842.010459  	91.421808 
843.447337  	91.502948 
844.884215  	91.572802 
846.321093  	91.678159 
847.757971  	91.771100 
849.194849  	91.815900 
850.631727  	91.871433 
852.068605  	91.953469 
853.505483  	92.035989 
854.942361  	92.088995 
856.379239  	92.121733 
857.816117  	92.185226 
859.252994  	92.245561 
860.689872  	92.265829 
862.126750  	92.294944 
863.563628  	92.341336 
865.000506  	92.359572 
866.437384  	92.337258 
867.874262  	92.334805 
869.311140  	92.367067 
870.748018  	92.356397 
872.184896  	92.352638 
873.621774  	92.418078 
875.058652  	92.444321 
876.495529  	92.418516 
877.932407  	92.402894 
879.369285  	92.381742 
880.806163  	92.379668 
882.243041  	92.373446 
883.679919  	92.314750 
885.116797  	92.253636 
886.553675  	92.186618 
887.990553  	92.107823 
889.427431  	92.054159 
890.864309  	91.982590 
892.301187  	91.894651 
893.738064  	91.824062 
895.174942  	91.732526 
896.611820  	91.627127 
898.048698  	91.510023 
899.485576  	91.346395 
900.922454  	91.173460 
902.359332  	91.007841 
903.796210  	90.823996 
905.233088  	90.640258 
906.669966  	90.449444 
908.106844  	90.200493 
909.543722  	89.871585 
910.980599  	89.515066 
912.417477  	89.164314 
913.854355  	88.708743 
915.291233  	88.114811 
916.728111  	87.524453 
918.164989  	86.937681 
919.601867  	86.303043 
921.038745  	85.708368 
922.475623  	85.145895 
923.912501  	84.542589 
925.349379  	83.828818 
926.786257  	82.893346 
928.223134  	81.725872 
929.660012  	80.309516 
931.096890  	78.622056 
932.533768  	76.741886 
933.970646  	74.641880 
935.407524  	72.402352 
936.844402  	70.075875 
938.281280  	67.275657 
939.718158  	63.751541 
941.155036  	59.352568 
942.591914  	53.981091 
944.028792  	48.181386 
945.465670  	42.376250 
946.902547  	36.993699 
948.339425  	32.908675 
949.776303  	30.594133 
951.213181  	30.917727 
952.650059  	34.396932 
954.086937  	40.215606 
955.523815  	47.680727 
956.960693  	56.058998 
958.397571  	64.356602 
959.834449  	71.695383 
961.271327  	77.486499 
962.708205  	81.639847 
964.145082  	84.464151 
965.581960  	86.413910 
967.018838  	87.787892 
968.455716  	88.781384 
969.892594  	89.509551 
971.329472  	90.039503 
972.766350  	90.492455 
974.203228  	90.855908 
975.640106  	91.105100 
977.076984  	91.350112 
978.513862  	91.583584 
979.950740  	91.766530 
981.387617  	91.943810 
982.824495  	92.130954 
984.261373  	92.338352 
985.698251  	92.524858 
987.135129  	92.659469 
988.572007  	92.785272 
990.008885  	92.888303 
991.445763  	92.984131 
992.882641  	93.083044 
994.319519  	93.126848 
995.756397  	93.171068 
997.193275  	93.235046 
998.630152  	93.252306 
1000.067030  	93.258831 
1001.503908  	93.270051 
1002.940786  	93.286503 
1004.377664  	93.313867 
1005.814542  	93.297718 
1007.251420  	93.277446 
1008.688298  	93.273320 
1010.125176  	93.230318 
1011.562054  	93.194251 
1012.998932  	93.169899 
1014.435810  	93.129816 
1015.872687  	93.091191 
1017.309565  	93.025297 
1018.746443  	92.971527 
1020.183321  	92.938444 
1021.620199  	92.866627 
1023.057077  	92.829291 
1024.493955  	92.812308 
1025.930833  	92.739060 
1027.367711  	92.681957 
1028.804589  	92.625443 
1030.241467  	92.544976 
1031.678345  	92.493710 
1033.115222  	92.411797 
1034.552100  	92.312980 
1035.988978  	92.249626 
1037.425856  	92.148604 
1038.862734  	92.030836 
1040.299612  	91.935137 
1041.736490  	91.816616 
1043.173368  	91.705746 
1044.610246  	91.606597 
1046.047124  	91.466967 
1047.484002  	91.314213 
1048.920880  	91.182167 
1050.357757  	91.039191 
1051.794635  	90.869878 
1053.231513  	90.711786 
1054.668391  	90.535446 
1056.105269  	90.276259 
1057.542147  	90.002690 
1058.979025  	89.766490 
1060.415903  	89.511998 
1061.852781  	89.226991 
1063.289659  	88.901292 
1064.726537  	88.543673 
1066.163415  	88.205154 
1067.600292  	87.812869 
1069.037170  	87.329320 
1070.474048  	86.881121 
1071.910926  	86.457801 
1073.347804  	85.935755 
1074.784682  	85.323382 
1076.221560  	84.663112 
1077.658438  	83.964110 
1079.095316  	83.211025 
1080.532194  	82.351453 
1081.969072  	81.392402 
1083.405950  	80.307867 
1084.842827  	79.064295 
1086.279705  	77.756524 
1087.716583  	76.322100 
1089.153461  	74.693547 
1090.590339  	73.033851 
1092.027217  	71.299500 
1093.464095  	69.468258 
1094.900973  	67.648319 
1096.337851  	65.759290 
1097.774729  	63.946110 
1099.211607  	62.261629 
1100.648485  	60.631352 
1102.085362  	59.349583 
1103.522240  	58.362452 
1104.959118  	57.664055 
1106.395996  	57.474014 
1107.832874  	57.480840 
1109.269752  	57.705454 
1110.706630  	58.223281 
1112.143508  	58.743772 
1113.580386  	59.391165 
1115.017264  	60.062679 
1116.454142  	60.510616 
1117.891020  	60.674501 
1119.327897  	60.178861 
1120.764775  	58.986994 
1122.201653  	57.235629 
1123.638531  	54.942417 
1125.075409  	52.808796 
1126.512287  	51.400520 
1127.949165  	50.957337 
1129.386043  	51.844429 
1130.822921  	53.711036 
1132.259799  	56.322664 
1133.696677  	59.575142 
1135.133555  	62.857225 
1136.570432  	65.860489 
1138.007310  	68.336976 
1139.444188  	70.104179 
1140.881066  	71.323574 
1142.317944  	71.994565 
1143.754822  	72.172489 
1145.191700  	72.017567 
1146.628578  	71.468863 
1148.065456  	70.609144 
1149.502334  	69.499678 
1150.939212  	68.069807 
1152.376090  	66.463376 
1153.812967  	64.682268 
1155.249845  	62.820359 
1156.686723  	61.216122 
1158.123601  	59.960041 
1159.560479  	59.344268 
1160.997357  	59.635909 
1162.434235  	60.858973 
1163.871113  	63.177269 
1165.307991  	66.378403 
1166.744869  	70.174765 
1168.181747  	74.268188 
1169.618625  	78.085944 
1171.055502  	81.352450 
1172.492380  	83.979623 
1173.929258  	85.936877 
1175.366136  	87.394638 
1176.803014  	88.470800 
1178.239892  	89.190416 
1179.676770  	89.693916 
1181.113648  	90.079960 
1182.550526  	90.311637 
1183.987404  	90.432978 
1185.424282  	90.510750 
1186.861160  	90.565788 
1188.298038  	90.667280 
1189.734915  	90.825615 
1191.171793  	90.988045 
1192.608671  	91.144195 
1194.045549  	91.291631 
1195.482427  	91.431290 
1196.919305  	91.553286 
1198.356183  	91.628859 
1199.793061  	91.665750 
1201.229939  	91.680681 
1202.666817  	91.698615 
1204.103695  	91.720155 
1205.540573  	91.700721 
1206.977450  	91.672461 
1208.414328  	91.662288 
1209.851206  	91.627294 
1211.288084  	91.585274 
1212.724962  	91.550630 
1214.161840  	91.512404 
1215.598718  	91.472686 
1217.035596  	91.410649 
1218.472474  	91.367439 
1219.909352  	91.350945 
1221.346230  	91.288619 
1222.783108  	91.219374 
1224.219985  	91.175274 
1225.656863  	91.115210 
1227.093741  	91.046369 
1228.530619  	90.968686 
1229.967497  	90.919895 
1231.404375  	90.909010 
1232.841253  	90.851280 
1234.278131  	90.789662 
1235.715009  	90.764913 
1237.151887  	90.693043 
1238.588765  	90.593072 
1240.025643  	90.507209 
1241.462520  	90.420960 
1242.899398  	90.329143 
1244.336276  	90.204485 
1245.773154  	90.070985 
1247.210032  	89.938266 
1248.646910  	89.774326 
1250.083788  	89.627497 
1251.520666  	89.489571 
1252.957544  	89.333227 
1254.394422  	89.208194 
1255.831300  	89.067899 
1257.268178  	88.885623 
1258.705055  	88.726299 
1260.141933  	88.563968 
1261.578811  	88.372601 
1263.015689  	88.168021 
1264.452567  	87.929747 
1265.889445  	87.666173 
1267.326323  	87.383777 
1268.763201  	87.059914 
1270.200079  	86.700487 
1271.636957  	86.322449 
1273.073835  	85.926200 
1274.510713  	85.497571 
1275.947590  	85.010819 
1277.384468  	84.446398 
1278.821346  	83.835463 
1280.258224  	83.207906 
1281.695102  	82.537587 
1283.131980  	81.830024 
1284.568858  	81.092888 
1286.005736  	80.326731 
1287.442614  	79.559858 
1288.879492  	78.776437 
1290.316370  	78.025405 
1291.753248  	77.331236 
1293.190125  	76.621434 
1294.627003  	75.958985 
1296.063881  	75.350105 
1297.500759  	74.764686 
1298.937637  	74.283391 
1300.374515  	73.851556 
1301.811393  	73.513999 
1303.248271  	73.334882 
1304.685149  	73.205083 
1306.122027  	73.187885 
1307.558905  	73.254033 
1308.995783  	73.329087 
1310.432660  	73.523416 
1311.869538  	73.760768 
1313.306416  	74.067727 
1314.743294  	74.545139 
1316.180172  	75.065118 
1317.617050  	75.683586 
1319.053928  	76.432221 
1320.490806  	77.227893 
1321.927684  	78.103994 
1323.364562  	78.981672 
1324.801440  	79.794482 
1326.238318  	80.585330 
1327.675195  	81.176684 
1329.112073  	81.566069 
1330.548951  	81.761268 
1331.985829  	81.688177 
1333.422707  	81.375665 
1334.859585  	80.836726 
1336.296463  	80.020702 
1337.733341  	79.098800 
1339.170219  	78.262915 
1340.607097  	77.913796 
1342.043975  	78.375614 
1343.480853  	79.378676 
1344.917730  	80.698199 
1346.354608  	81.981367 
1347.791486  	82.585992 
1349.228364  	83.102762 
1350.665242  	83.733383 
1352.102120  	84.162169 
1353.538998  	83.779856 
1354.975876  	83.062522 
1356.412754  	82.316567 
1357.849632  	81.512195 
1359.286510  	79.752417 
1360.723388  	77.695029 
1362.160265  	75.304410 
1363.597143  	72.676042 
1365.034021  	70.548562 
1366.470899  	69.036394 
1367.907777  	68.856940 
1369.344655  	69.347533 
1370.781533  	69.986432 
1372.218411  	70.215548 
1373.655289  	69.523062 
1375.092167  	67.673469 
1376.529045  	65.757865 
1377.965923  	64.221638 
1379.402800  	64.326242 
1380.839678  	66.443649 
1382.276556  	69.411509 
1383.713434  	72.635267 
1385.150312  	75.689105 
1386.587190  	78.013839 
1388.024068  	79.991666 
1389.460946  	81.119222 
1390.897824  	82.289469 
1392.334702  	82.370085 
1393.771580  	82.308040 
1395.208458  	82.200387 
1396.645335  	82.019950 
1398.082213  	81.797596 
1399.519091  	81.560290 
1400.955969  	81.302078 
1402.392847  	81.069385 
1403.829725  	80.766139 
1405.266603  	80.480582 
1406.703481  	80.290122 
1408.140359  	80.151337 
1409.577237  	80.214807 
1411.014115  	80.438999 
1412.450993  	80.695444 
1413.887871  	81.008520 
1415.324748  	81.329163 
1416.761626  	81.578499 
1418.198504  	81.869292 
1419.635382  	82.251777 
1421.072260  	82.642065 
1422.509138  	82.907809 
1423.946016  	83.089864 
1425.382894  	83.372422 
1426.819772  	83.616922 
1428.256650  	83.808813 
1429.693528  	84.067516 
1431.130406  	84.334800 
1432.567283  	84.582852 
1434.004161  	84.821266 
1435.441039  	85.024202 
1436.877917  	85.278227 
1438.314795  	85.540920 
1439.751673  	85.727323 
1441.188551  	85.910382 
1442.625429  	86.038206 
1444.062307  	86.132758 
1445.499185  	85.957735 
1446.936063  	85.607821 
1448.372941  	85.142384 
1449.809818  	84.548649 
1451.246696  	83.895926 
1452.683574  	83.157714 
1454.120452  	82.536578 
1455.557330  	82.102801 
1456.994208  	81.715334 
1458.431086  	81.256539 
1459.867964  	80.609055 
1461.304842  	79.901798 
1462.741720  	79.202386 
1464.178598  	78.484400 
1465.615476  	77.930820 
1467.052353  	77.668237 
1468.489231  	78.056470 
1469.926109  	79.087614 
1471.362987  	80.314185 
1472.799865  	82.213343 
1474.236743  	83.728721 
1475.673621  	84.553410 
1477.110499  	85.564889 
1478.547377  	86.281683 
1479.984255  	86.897685 
1481.421133  	87.600064 
1482.858011  	88.116307 
1484.294888  	88.664676 
1485.731766  	88.992363 
1487.168644  	89.261497 
1488.605522  	89.563302 
1490.042400  	89.758068 
1491.479278  	90.037323 
1492.916156  	90.353831 
1494.353034  	90.534996 
1495.789912  	90.750345 
1497.226790  	90.977514 
1498.663668  	91.140585 
1500.100546  	91.353603 
1501.537423  	91.528677 
1502.974301  	91.700160 
1504.411179  	91.800947 
1505.848057  	91.835041 
1507.284935  	91.888405 
1508.721813  	91.919260 
1510.158691  	91.939512 
1511.595569  	92.065078 
1513.032447  	92.181871 
1514.469325  	92.240349 
1515.906203  	92.316925 
1517.343081  	92.324359 
1518.779958  	92.392331 
1520.216836  	92.448083 
1521.653714  	92.427553 
