##TITLE=No Description
##DATA TYPE=INFRARED SPECTRUM
##XUNITS=1/CM
##YUNITS=%T
399.452061  	11.560370 
400.888939  	11.271736 
402.325817  	10.602546 
403.762695  	10.178477 
405.199573  	10.478705 
406.636451  	9.923404 
408.073328  	9.615284 
409.510206  	10.180124 
410.947084  	9.861807 
412.383962  	9.494949 
413.820840  	9.506700 
415.257718  	9.311918 
416.694596  	9.313761 
418.131474  	10.375549 
419.568352  	11.244881 
421.005230  	11.186582 
422.442108  	10.434118 
423.878986  	9.789922 
425.315863  	9.462397 
426.752741  	9.648929 
428.189619  	10.328875 
429.626497  	10.816726 
431.063375  	10.591210 
432.500253  	10.502175 
433.937131  	10.415694 
435.374009  	10.560742 
436.810887  	10.685265 
438.247765  	10.351533 
439.684643  	10.445803 
441.121521  	10.926596 
442.558398  	11.175431 
443.995276  	11.798342 
445.432154  	13.033570 
446.869032  	13.587037 
448.305910  	13.048700 
449.742788  	12.839805 
451.179666  	13.728205 
452.616544  	14.739794 
454.053422  	15.217627 
455.490300  	15.597800 
456.927178  	16.217337 
458.364056  	17.385894 
459.800933  	18.479585 
461.237811  	19.248964 
462.674689  	19.987537 
464.111567  	20.653696 
465.548445  	21.519952 
466.985323  	22.971583 
468.422201  	24.542414 
469.859079  	25.779317 
471.295957  	26.815519 
472.732835  	28.252428 
474.169713  	30.055760 
475.606591  	31.435640 
477.043469  	32.668706 
478.480346  	34.064775 
479.917224  	35.212562 
481.354102  	36.454669 
482.790980  	37.891837 
484.227858  	38.917829 
485.664736  	39.760697 
487.101614  	40.788378 
488.538492  	41.695280 
489.975370  	42.301971 
491.412248  	42.900181 
492.849126  	43.511831 
494.286004  	43.919730 
495.722881  	44.488511 
497.159759  	44.982935 
498.596637  	45.029423 
500.033515  	45.320277 
501.470393  	45.675713 
502.907271  	45.539796 
504.344149  	45.514618 
505.781027  	45.595092 
507.217905  	45.560621 
508.654783  	45.443387 
510.091661  	45.097856 
511.528539  	44.825965 
512.965416  	44.654818 
514.402294  	44.411118 
515.839172  	44.296033 
517.276050  	43.937600 
518.712928  	43.417073 
520.149806  	43.240062 
521.586684  	42.990196 
523.023562  	42.663427 
524.460440  	42.439574 
525.897318  	42.132207 
527.334196  	42.020021 
528.771074  	41.968190 
530.207951  	41.673533 
531.644829  	41.321932 
533.081707  	41.014432 
534.518585  	40.942733 
535.955463  	40.898625 
537.392341  	40.594689 
538.829219  	40.507447 
540.266097  	40.465479 
541.702975  	40.195159 
543.139853  	40.121057 
544.576731  	40.018533 
546.013609  	39.879524 
547.450486  	40.067313 
548.887364  	40.118426 
550.324242  	40.023189 
551.761120  	40.107035 
553.197998  	40.153357 
554.634876  	40.133137 
556.071754  	40.065480 
557.508632  	40.007219 
558.945510  	40.086820 
560.382388  	40.116935 
561.819266  	40.150390 
563.256144  	40.307833 
564.693021  	40.417530 
566.129899  	40.482766 
567.566777  	40.547983 
569.003655  	40.634742 
570.440533  	40.702590 
571.877411  	40.662764 
573.314289  	40.702497 
574.751167  	40.849844 
576.188045  	41.003343 
577.624923  	41.217137 
579.061801  	41.343576 
580.498679  	41.391686 
581.935556  	41.473428 
583.372434  	41.501949 
584.809312  	41.589054 
586.246190  	41.722486 
587.683068  	41.786650 
589.119946  	41.879875 
590.556824  	41.902862 
591.993702  	41.928006 
593.430580  	42.136039 
594.867458  	42.320699 
596.304336  	42.441022 
597.741214  	42.480178 
599.178091  	42.438210 
600.614969  	42.559812 
602.051847  	42.689256 
603.488725  	42.693186 
604.925603  	42.777663 
606.362481  	42.875862 
607.799359  	42.976859 
609.236237  	43.042994 
610.673115  	43.109128 
612.109993  	43.165538 
613.546871  	43.220098 
614.983749  	43.217473 
616.420626  	43.297615 
617.857504  	43.338138 
619.294382  	43.407011 
620.731260  	43.510984 
622.168138  	43.479674 
623.605016  	43.507239 
625.041894  	43.556643 
626.478772  	43.467419 
627.915650  	43.362050 
629.352528  	43.267375 
630.789406  	43.245610 
632.226284  	43.235576 
633.663161  	43.168810 
635.100039  	43.230910 
636.536917  	43.311561 
637.973795  	43.333298 
639.410673  	43.322076 
640.847551  	43.312897 
642.284429  	43.307593 
643.721307  	43.350841 
645.158185  	43.408438 
646.595063  	43.442395 
648.031941  	43.469847 
649.468819  	43.469541 
650.905696  	43.512516 
652.342574  	43.543987 
653.779452  	43.541308 
655.216330  	43.512456 
656.653208  	43.471668 
658.090086  	43.581949 
659.526964  	43.708609 
660.963842  	43.700879 
662.400720  	43.785683 
663.837598  	43.847003 
665.274476  	43.758539 
666.711354  	43.773392 
668.148231  	43.838950 
669.585109  	43.951970 
671.021987  	43.970619 
672.458865  	43.964453 
673.895743  	44.015987 
675.332621  	44.038922 
676.769499  	44.075593 
678.206377  	44.186850 
679.643255  	44.204174 
681.080133  	44.200212 
682.517011  	44.292481 
683.953889  	44.353445 
685.390766  	44.408123 
686.827644  	44.459180 
688.264522  	44.482541 
689.701400  	44.540545 
691.138278  	44.589614 
692.575156  	44.649697 
694.012034  	44.710839 
695.448912  	44.721571 
696.885790  	44.833623 
698.322668  	44.909599 
699.759546  	44.902935 
701.196424  	45.043028 
702.633301  	45.132349 
704.070179  	45.133833 
705.507057  	45.204222 
706.943935  	45.223008 
708.380813  	45.276434 
709.817691  	45.374666 
711.254569  	45.427928 
712.691447  	45.536261 
714.128325  	45.605504 
715.565203  	45.613931 
717.002081  	45.698795 
718.438959  	45.765866 
719.875837  	45.812959 
721.312714  	45.870919 
722.749592  	45.890606 
724.186470  	45.990581 
725.623348  	46.092710 
727.060226  	46.150362 
728.497104  	46.217685 
729.933982  	46.267507 
731.370860  	46.322223 
732.807738  	46.373620 
734.244616  	46.383660 
735.681494  	46.527278 
737.118372  	46.618792 
738.555249  	46.593357 
739.992127  	46.672782 
741.429005  	46.754196 
742.865883  	46.828848 
744.302761  	46.927549 
745.739639  	46.969270 
747.176517  	47.076698 
748.613395  	47.157804 
750.050273  	47.168247 
751.487151  	47.263321 
752.924029  	47.294033 
754.360907  	47.311688 
755.797784  	47.416434 
757.234662  	47.418438 
758.671540  	47.418928 
760.108418  	47.443024 
761.545296  	47.372989 
762.982174  	47.333112 
764.419052  	47.260753 
765.855930  	47.123497 
767.292808  	46.986661 
768.729686  	46.744287 
770.166564  	46.496841 
771.603442  	46.269887 
773.040319  	45.948891 
774.477197  	45.676143 
775.914075  	45.494906 
777.350953  	45.390588 
778.787831  	45.346586 
780.224709  	45.258910 
781.661587  	45.245156 
783.098465  	45.324214 
784.535343  	45.428918 
785.972221  	45.619656 
787.409099  	45.781708 
788.845977  	45.958325 
790.282854  	46.228155 
791.719732  	46.454407 
793.156610  	46.742163 
794.593488  	47.113483 
796.030366  	47.475043 
797.467244  	47.889524 
798.904122  	48.266206 
800.341000  	48.657755 
801.777878  	49.137399 
803.214756  	49.567604 
804.651634  	50.037493 
806.088512  	50.534674 
807.525389  	51.000782 
808.962267  	51.553412 
810.399145  	52.052372 
811.836023  	52.504918 
813.272901  	53.050145 
814.709779  	53.585517 
816.146657  	54.149026 
817.583535  	54.714183 
819.020413  	55.228306 
820.457291  	55.787609 
821.894169  	56.289717 
823.331047  	56.801929 
824.767924  	57.418194 
826.204802  	57.945728 
827.641680  	58.463593 
829.078558  	59.033255 
830.515436  	59.536264 
831.952314  	60.034220 
833.389192  	60.530260 
834.826070  	61.018677 
836.262948  	61.450449 
837.699826  	61.762552 
839.136704  	62.109601 
840.573582  	62.440463 
842.010459  	62.706090 
843.447337  	63.022529 
844.884215  	63.219490 
846.321093  	63.333411 
847.757971  	63.497041 
849.194849  	63.556614 
850.631727  	63.637341 
852.068605  	63.790706 
853.505483  	63.875578 
854.942361  	63.979980 
856.379239  	64.034851 
857.816117  	64.072310 
859.252994  	64.189362 
860.689872  	64.181968 
862.126750  	64.188142 
863.563628  	64.326702 
865.000506  	64.379652 
866.437384  	64.409806 
867.874262  	64.415226 
869.311140  	64.392639 
870.748018  	64.471136 
872.184896  	64.476609 
873.621774  	64.444502 
875.058652  	64.490287 
876.495529  	64.450339 
877.932407  	64.392255 
879.369285  	64.342357 
880.806163  	64.283452 
882.243041  	64.297319 
883.679919  	64.213896 
885.116797  	64.082176 
886.553675  	64.007043 
887.990553  	63.864377 
889.427431  	63.771511 
890.864309  	63.653513 
892.301187  	63.449134 
893.738064  	63.373512 
895.174942  	63.209514 
896.611820  	62.945282 
898.048698  	62.806884 
899.485576  	62.592530 
900.922454  	62.369928 
902.359332  	62.202794 
903.796210  	61.938565 
905.233088  	61.749673 
906.669966  	61.560544 
908.106844  	61.283208 
909.543722  	61.062005 
910.980599  	60.767149 
912.417477  	60.483280 
913.854355  	60.239973 
915.291233  	59.859218 
916.728111  	59.549649 
918.164989  	59.244338 
919.601867  	58.820534 
921.038745  	58.487754 
922.475623  	58.106213 
923.912501  	57.713379 
925.349379  	57.405796 
926.786257  	56.956967 
928.223134  	56.557178 
929.660012  	56.229645 
931.096890  	55.786097 
932.533768  	55.431219 
933.970646  	55.087161 
935.407524  	54.715509 
936.844402  	54.431277 
938.281280  	54.065907 
939.718158  	53.768944 
941.155036  	53.572610 
942.591914  	53.283366 
944.028792  	53.074674 
945.465670  	52.890206 
946.902547  	52.687421 
948.339425  	52.584722 
949.776303  	52.435278 
951.213181  	52.357673 
952.650059  	52.372125 
954.086937  	52.323544 
955.523815  	52.381784 
956.960693  	52.444110 
958.397571  	52.484734 
959.834449  	52.667053 
961.271327  	52.803611 
962.708205  	52.988406 
964.145082  	53.288735 
965.581960  	53.527020 
967.018838  	53.838435 
968.455716  	54.169372 
969.892594  	54.496042 
971.329472  	54.940687 
972.766350  	55.328645 
974.203228  	55.721384 
975.640106  	56.121057 
977.076984  	56.399637 
978.513862  	56.734061 
979.950740  	56.985726 
981.387617  	57.085652 
982.824495  	57.181467 
984.261373  	57.087701 
985.698251  	56.896333 
987.135129  	56.635420 
988.572007  	56.124625 
990.008885  	55.580982 
991.445763  	54.885726 
992.882641  	53.954669 
994.319519  	53.065102 
995.756397  	52.012314 
997.193275  	50.829961 
998.630152  	49.645598 
1000.067030  	48.236607 
1001.503908  	46.862084 
1002.940786  	45.480309 
1004.377664  	43.887595 
1005.814542  	42.379911 
1007.251420  	40.755191 
1008.688298  	39.048588 
1010.125176  	37.493848 
1011.562054  	35.746915 
1012.998932  	34.054123 
1014.435810  	32.455331 
1015.872687  	30.666943 
1017.309565  	29.091988 
1018.746443  	27.509511 
1020.183321  	25.835410 
1021.620199  	24.444195 
1023.057077  	22.947226 
1024.493955  	21.553164 
1025.930833  	20.395160 
1027.367711  	19.075220 
1028.804589  	18.019174 
1030.241467  	17.041353 
1031.678345  	15.968880 
1033.115222  	15.253432 
1034.552100  	14.445963 
1035.988978  	13.702543 
1037.425856  	13.253818 
1038.862734  	12.595500 
1040.299612  	12.162538 
1041.736490  	11.833818 
1043.173368  	11.320159 
1044.610246  	11.139553 
1046.047124  	10.860349 
1047.484002  	10.562869 
1048.920880  	10.566606 
1050.357757  	10.314350 
1051.794635  	10.234761 
1053.231513  	10.287239 
1054.668391  	10.099081 
1056.105269  	10.242630 
1057.542147  	10.302375 
1058.979025  	10.243059 
1060.415903  	10.469361 
1061.852781  	10.439469 
1063.289659  	10.560413 
1064.726537  	10.867337 
1066.163415  	10.896829 
1067.600292  	11.214396 
1069.037170  	11.451102 
1070.474048  	11.529985 
1071.910926  	11.972592 
1073.347804  	12.197757 
1074.784682  	12.478196 
1076.221560  	12.979767 
1077.658438  	13.245611 
1079.095316  	13.813501 
1080.532194  	14.384578 
1081.969072  	14.749497 
1083.405950  	15.469001 
1084.842827  	16.095874 
1086.279705  	16.764233 
1087.716583  	17.668071 
1089.153461  	18.413841 
1090.590339  	19.444233 
1092.027217  	20.592780 
1093.464095  	21.701376 
1094.900973  	23.192713 
1096.337851  	24.635334 
1097.774729  	26.189038 
1099.211607  	28.086023 
1100.648485  	29.881544 
1102.085362  	31.869754 
1103.522240  	33.958440 
1104.959118  	35.891195 
1106.395996  	37.918170 
1107.832874  	39.745718 
1109.269752  	41.422680 
1110.706630  	43.076231 
1112.143508  	44.380026 
1113.580386  	45.573426 
1115.017264  	46.652598 
1116.454142  	47.454508 
1117.891020  	48.242413 
1119.327897  	48.853323 
1120.764775  	49.335105 
1122.201653  	49.884294 
1123.638531  	50.268137 
1125.075409  	50.631617 
1126.512287  	50.996162 
1127.949165  	51.247118 
1129.386043  	51.580863 
1130.822921  	51.825506 
1132.259799  	52.025568 
1133.696677  	52.343975 
1135.133555  	52.526230 
1136.570432  	52.718441 
1138.007310  	52.959878 
1139.444188  	53.108754 
1140.881066  	53.375989 
1142.317944  	53.603817 
1143.754822  	53.752446 
1145.191700  	54.005758 
1146.628578  	54.183038 
1148.065456  	54.381723 
1149.502334  	54.607806 
1150.939212  	54.734331 
1152.376090  	54.992773 
1153.812967  	55.234702 
1155.249845  	55.395553 
1156.686723  	55.677757 
1158.123601  	55.883905 
1159.560479  	56.070683 
1160.997357  	56.326482 
1162.434235  	56.535921 
1163.871113  	56.841943 
1165.307991  	57.108400 
1166.744869  	57.300988 
1168.181747  	57.625099 
1169.618625  	57.887213 
1171.055502  	58.140689 
1172.492380  	58.472441 
1173.929258  	58.715709 
1175.366136  	59.020016 
1176.803014  	59.323962 
1178.239892  	59.563730 
1179.676770  	59.928211 
1181.113648  	60.237507 
1182.550526  	60.506247 
1183.987404  	60.862530 
1185.424282  	61.143215 
1186.861160  	61.440582 
1188.298038  	61.755255 
1189.734915  	62.026133 
1191.171793  	62.380054 
1192.608671  	62.685601 
1194.045549  	62.976718 
1195.482427  	63.350711 
1196.919305  	63.646811 
1198.356183  	63.961309 
1199.793061  	64.308008 
1201.229939  	64.615539 
1202.666817  	64.998878 
1204.103695  	65.349830 
1205.540573  	65.684497 
1206.977450  	66.073221 
1208.414328  	66.389554 
1209.851206  	66.774462 
1211.288084  	67.211177 
1212.724962  	67.565682 
1214.161840  	67.993816 
1215.598718  	68.427868 
1217.035596  	68.841083 
1218.472474  	69.323515 
1219.909352  	69.747155 
1221.346230  	70.203478 
1222.783108  	70.734465 
1224.219985  	71.219529 
1225.656863  	71.757325 
1227.093741  	72.306798 
1228.530619  	72.843669 
1229.967497  	73.456190 
1231.404375  	74.049368 
1232.841253  	74.674346 
1234.278131  	75.362280 
1235.715009  	76.020315 
1237.151887  	76.722261 
1238.588765  	77.423271 
1240.025643  	78.106907 
1241.462520  	78.879691 
1242.899398  	79.646064 
1244.336276  	80.399264 
1245.773154  	81.207482 
1247.210032  	82.000973 
1248.646910  	82.777060 
1250.083788  	83.521736 
1251.520666  	84.217390 
1252.957544  	84.914345 
1254.394422  	85.570239 
1255.831300  	86.155600 
1257.268178  	86.704130 
1258.705055  	87.199196 
1260.141933  	87.644385 
1261.578811  	88.054112 
1263.015689  	88.409637 
1264.452567  	88.724668 
1265.889445  	89.007570 
1267.326323  	89.248286 
1268.763201  	89.466649 
1270.200079  	89.657700 
1271.636957  	89.824480 
1273.073835  	90.016843 
1274.510713  	90.211423 
1275.947590  	90.358109 
1277.384468  	90.474572 
1278.821346  	90.574311 
1280.258224  	90.680357 
1281.695102  	90.806535 
1283.131980  	90.913961 
1284.568858  	91.010032 
1286.005736  	91.099101 
1287.442614  	91.159834 
1288.879492  	91.237897 
1290.316370  	91.325520 
1291.753248  	91.383879 
1293.190125  	91.448675 
1294.627003  	91.508064 
1296.063881  	91.553324 
1297.500759  	91.614184 
1298.937637  	91.662534 
1300.374515  	91.705925 
1301.811393  	91.742873 
1303.248271  	91.785157 
1304.685149  	91.809097 
1306.122027  	91.827169 
1307.558905  	91.847855 
1308.995783  	91.880447 
1310.432660  	91.896963 
1311.869538  	91.906950 
1313.306416  	91.929147 
1314.743294  	91.957076 
1316.180172  	91.978484 
1317.617050  	91.983781 
1319.053928  	91.988383 
1320.490806  	92.007339 
1321.927684  	92.035544 
1323.364562  	92.053455 
1324.801440  	92.087016 
1326.238318  	92.105907 
1327.675195  	92.119398 
1329.112073  	92.118674 
1330.548951  	92.092051 
1331.985829  	92.102704 
1333.422707  	92.120574 
1334.859585  	92.113753 
1336.296463  	92.119365 
1337.733341  	92.097414 
1339.170219  	92.062180 
1340.607097  	92.075080 
1342.043975  	92.107562 
1343.480853  	92.132253 
1344.917730  	92.154412 
1346.354608  	92.157575 
1347.791486  	92.156361 
1349.228364  	92.141418 
1350.665242  	92.135161 
1352.102120  	92.152571 
1353.538998  	92.142310 
1354.975876  	92.122741 
1356.412754  	92.127484 
1357.849632  	92.134075 
1359.286510  	92.128377 
1360.723388  	92.097831 
1362.160265  	92.059199 
1363.597143  	92.048678 
1365.034021  	92.057154 
1366.470899  	92.059373 
1367.907777  	92.048230 
1369.344655  	92.044198 
1370.781533  	92.035385 
1372.218411  	92.001073 
1373.655289  	91.961166 
1375.092167  	91.943371 
1376.529045  	91.941274 
1377.965923  	91.930274 
1379.402800  	91.904306 
1380.839678  	91.893213 
1382.276556  	91.894872 
1383.713434  	91.873060 
1385.150312  	91.844297 
1386.587190  	91.816718 
1388.024068  	91.780220 
1389.460946  	91.797066 
1390.897824  	91.796243 
1392.334702  	91.732198 
1393.771580  	91.674667 
1395.208458  	91.611224 
1396.645335  	91.560107 
1398.082213  	91.549271 
1399.519091  	91.485995 
1400.955969  	91.448975 
1402.392847  	91.419884 
1403.829725  	91.331017 
1405.266603  	91.259673 
1406.703481  	91.241548 
1408.140359  	91.220843 
1409.577237  	91.151983 
1411.014115  	91.023477 
1412.450993  	90.921891 
1413.887871  	90.854279 
1415.324748  	90.723495 
1416.761626  	90.628999 
1418.198504  	90.632497 
1419.635382  	90.571640 
1421.072260  	90.435269 
1422.509138  	90.306730 
1423.946016  	90.199555 
1425.382894  	90.164863 
1426.819772  	90.137306 
1428.256650  	90.042110 
1429.693528  	89.942619 
1431.130406  	89.871661 
1432.567283  	89.780120 
1434.004161  	89.657960 
1435.441039  	89.569808 
1436.877917  	89.529957 
1438.314795  	89.521442 
1439.751673  	89.463570 
1441.188551  	89.377010 
1442.625429  	89.295155 
1444.062307  	89.230869 
1445.499185  	89.188437 
1446.936063  	89.160139 
1448.372941  	89.135236 
1449.809818  	89.114967 
1451.246696  	89.086482 
1452.683574  	88.995258 
1454.120452  	88.909540 
1455.557330  	88.916113 
1456.994208  	88.899785 
1458.431086  	88.936401 
1459.867964  	89.053240 
1461.304842  	89.103042 
1462.741720  	89.030024 
1464.178598  	88.946293 
1465.615476  	88.947383 
1467.052353  	89.009288 
1468.489231  	89.096262 
1469.926109  	89.189521 
1471.362987  	89.268585 
1472.799865  	89.272513 
1474.236743  	89.224154 
1475.673621  	89.239598 
1477.110499  	89.357249 
1478.547377  	89.511414 
1479.984255  	89.602625 
1481.421133  	89.590418 
1482.858011  	89.568659 
1484.294888  	89.598038 
1485.731766  	89.641446 
1487.168644  	89.711686 
1488.605522  	89.779865 
1490.042400  	89.817178 
1491.479278  	89.899237 
1492.916156  	89.967505 
1494.353034  	90.037515 
1495.789912  	90.120010 
1497.226790  	90.146653 
1498.663668  	90.166674 
1500.100546  	90.219001 
1501.537423  	90.244041 
1502.974301  	90.298329 
1504.411179  	90.377243 
1505.848057  	90.378266 
1507.284935  	90.276291 
1508.721813  	90.337452 
1510.158691  	90.415004 
1511.595569  	90.459310 
1513.032447  	90.472453 
1514.469325  	90.475177 
1515.906203  	90.442664 
1517.343081  	90.404809 
1518.779958  	90.442411 
1520.216836  	90.492018 
1521.653714  	90.528435 
